timestamp_brainflow,timestamp_lsl,t_rel_s,marker,package_num,Fz,C3,Cz,C4,Pz,PO7,Oz,PO8,F5,F7,F3,F1,F2,F4,F6,F8,accel_x,accel_y,accel_z,gyro_x,gyro_y,gyro_z,eda_1,ppg_1,ppg_2,temp_1,resistance_1,resistance_2,battery
1788108736.439212,326063.573735,0.000000,0.000000,0.000000,11.763196,27.853176,47.117253,74.999966,98.519547,141.358135,294.564791,364.110794,404.146937,437.323333,593.985377,457.298794,465.373648,419.230041,535.609903,467.430686,0.996473,0.894129,0.966808,0.964144,0.880609,0.833647,0.993283,467.170184,262494.854612,36.605754,948.574439,1042.720386,83.191911
1788108736.444276,326063.578790,0.005064,0.000000,1.000000,13.651566,36.042310,64.237991,94.789007,104.775192,137.958832,297.180197,339.271655,313.482664,256.381237,183.489559,113.916810,-10.744941,19.504646,-74.225206,-63.975550,0.968743,0.932346,0.935252,0.902795,0.809520,0.938167,0.911964,533.371155,232179.364579,36.603584,1069.547961,1013.494148,93.500131
1788108736.447952,326063.582466,0.008740,0.000000,2.000000,15.338238,39.428611,67.101387,93.147518,98.349413,97.146077,93.498316,51.190210,-0.245663,-2.196870,-15.866584,-37.673850,-18.299026,81.893537,154.217790,243.788708,0.802877,0.855528,0.902191,0.812516,0.903208,0.976503,0.962240,468.354370,277561.933632,36.595030,981.189581,939.379302,90.253545
1788108736.452035,326063.586549,0.012823,0.000000,3.000000,16.791459,45.274198,73.185469,85.644266,76.654481,52.238775,2.424458,-55.353760,-38.630812,-18.830232,78.120882,189.477538,294.263792,346.456542,375.291824,195.223826,0.913772,0.805951,0.819763,0.866963,0.854057,0.945907,1.006141,484.321554,251169.735703,36.597579,932.004852,934.636438,98.210438
1788108736.456020,326063.590534,0.016808,0.000000,4.000000,18.444122,49.010296,63.476662,63.004920,37.976189,3.205642,-43.191158,-26.017203,63.636817,187.480883,305.376221,340.434353,311.875945,134.540915,-32.699321,-99.094630,0.856580,0.810083,0.970218,0.936275,0.903782,0.893536,1.095472,458.581009,264318.762030,36.597783,980.475853,937.880258,88.414794
1788108736.460015,326063.594529,0.020803,0.000000,5.000000,19.694523,50.723806,59.909458,38.429908,5.551445,-13.884469,17.605635,89.472966,213.636982,205.618967,190.210450,99.190186,74.236611,-66.024281,101.735304,183.788746,0.851768,0.983693,0.919548,0.902648,0.862833,0.932314,1.033576,537.360654,266891.929354,36.592322,949.344804,902.765835,91.277110
1788108736.464016,326063.598530,0.024804,0.000000,6.000000,21.058840,48.777193,45.235286,11.477399,-13.201618,5.369475,86.276694,165.477087,190.293199,132.057560,5.346963,9.422439,88.284408,209.154405,218.265067,377.831437,0.890896,0.884927,0.822515,0.835274,0.940422,0.827069,1.051509,537.493823,268777.599983,36.608723,1018.520947,933.885368,82.012874
1788108736.468020,326063.602534,0.028808,0.000000,7.000000,21.861678,44.495661,31.113223,-8.802479,-15.112218,59.895439,141.384105,139.491037,85.963513,-68.588863,-82.462431,126.484459,373.936382,208.273575,138.043036,55.439677,0.989587,0.934474,0.917009,0.902446,0.925765,0.962453,0.908072,486.706276,245074.984474,36.607036,979.973281,933.891045,93.869315
1788108736.472027,326063.606541,0.032815,0.000000,8.000000,22.498540,42.382082,15.375225,-12.738176,13.801305,122.095853,152.725539,84.060311,-72.186490,-49.686079,184.519356,308.005969,167.596822,71.162643,-63.795651,158.502395,0.964635,0.973092,0.858954,0.868957,0.979430,0.902374,1.038140,489.993769,243893.919403,36.603385,953.306920,1029.874782,91.256741
1788108736.476021,326063.610535,0.036809,0.000000,9.000000,23.676727,34.706881,1.612451,-20.234548,62.612312,157.241898,106.303480,-11.671809,-1.263781,187.767093,302.197650,138.232870,6.343351,-19.469298,304.318322,397.509040,0.890337,0.874735,0.869749,0.895466,0.909737,0.976156,1.083292,499.759409,247844.273747,36.594317,1048.410262,1070.574463,83.695854
1788108736.480022,326063.614536,0.040810,0.000000,10.000000,23.884711,29.047271,-7.111103,3.479651,111.161528,132.316969,22.284649,-24.266960,120.350872,298.110466,110.259428,51.153384,85.681142,270.704470,206.794712,-112.569785,0.955292,0.859007,0.863965,0.839787,0.928919,0.826292,1.084256,488.733528,267092.064251,36.605574,1039.239889,1023.665243,85.511831
1788108736.484024,326063.618538,0.044812,0.000000,11.000000,24.709385,22.236332,-17.831690,34.945395,109.717335,73.587912,-32.415448,59.671580,225.089465,126.698887,-106.504434,70.181738,311.845151,174.316996,24.863449,104.666632,0.945559,0.820837,0.847476,0.964620,0.999324,0.987989,0.966676,524.826418,228893.411161,36.604810,993.413031,963.206493,86.908623
1788108736.488031,326063.622545,0.048819,0.000000,12.000000,24.160916,15.031071,-9.772522,65.507376,120.459651,1.258019,2.009793,133.954236,191.784406,-30.421085,79.974209,315.716299,175.130523,-64.728737,156.151496,544.837598,0.821942,0.916361,0.881429,0.833602,0.973970,0.949394,1.041037,467.933125,246015.012770,36.592193,1023.999205,1073.083220,84.811152
1788108736.492032,326063.626546,0.052820,0.000000,13.000000,23.461297,7.872302,-7.687427,77.795172,82.818218,-19.185499,74.005539,154.216919,38.324688,15.601425,306.039690,186.151771,-56.973197,183.180700,376.063604,88.388400,0.984117,0.915708,0.942471,0.920602,0.844691,0.848550,1.022663,478.709254,251669.267576,36.597909,903.537901,993.615471,88.517224
1788108736.496025,326063.630531,0.056813,0.000000,14.000000,23.311686,2.474062,11.431944,96.093428,37.901038,-25.361028,166.245511,123.090578,7.737747,177.631959,245.344924,-128.961243,124.268563,197.483590,-13.189550,94.381857,0.918720,0.914837,0.820047,0.853376,0.881014,0.823245,0.950337,546.081574,261144.840383,36.608335,1046.523213,1067.062117,90.342871
1788108736.500044,326063.634550,0.060832,0.000000,15.000000,22.681828,-1.107152,24.449505,89.260705,-0.721922,43.700685,156.446572,27.745427,27.791525,259.321922,-28.711600,19.334166,215.961909,68.403168,49.842897,638.726865,0.917265,0.940638,0.824235,0.926094,0.922021,0.805493,0.940644,523.064169,269961.570957,36.590293,901.552111,1065.521213,96.789513
1788108736.504055,326063.638561,0.064843,0.000000,16.000000,21.457645,-7.626946,38.721368,72.251176,-32.330145,90.910409,118.227485,-14.251229,170.687233,123.961828,-38.262406,339.643013,108.520283,59.379145,746.615099,191.442918,0.939157,0.817793,0.974516,0.909328,0.955631,0.824608,1.093711,503.450233,254089.227943,36.594412,1070.672087,994.731895,97.854582
1788108736.508050,326063.642555,0.068838,0.000000,17.000000,20.655139,-8.582655,54.659730,52.499542,-20.107202,163.792196,15.811476,27.456666,187.150691,-25.894467,137.993162,255.646552,-92.628507,465.152415,268.280871,73.132164,0.949596,0.827882,0.906864,0.908816,0.809363,0.902561,1.057291,501.045383,249586.025742,36.609664,1011.992313,983.933773,86.901621
1788108736.512053,326063.646559,0.072841,0.000000,18.000000,19.886081,-8.559735,60.821123,25.631416,14.637614,156.656967,-18.568469,155.969673,101.594177,24.394166,298.900513,-58.083676,393.012467,472.218852,56.168937,349.576088,0.888794,0.914173,0.824299,0.926538,0.927706,0.839957,1.014712,466.491288,248724.539004,36.608670,954.228020,914.478971,87.666100
1788108736.516053,326063.650558,0.076841,0.000000,19.000000,18.278640,-8.203781,75.552310,5.526705,65.846937,97.250659,1.497080,158.542166,-58.080719,174.592663,120.263335,66.011189,720.311089,-152.009021,250.554429,148.759169,0.858493,0.816635,0.948113,0.823973,0.918839,0.863503,1.011565,535.619254,256793.704707,36.599789,960.363880,1024.865518,93.503128
1788108736.520053,326063.654558,0.080841,0.000000,20.000000,16.796047,-5.110341,78.127185,-15.702751,93.891911,23.025688,60.088287,121.913111,-41.923234,245.491715,14.752029,450.473168,126.387120,115.834869,199.015096,-139.551551,0.883591,0.851710,0.970907,0.912518,0.817016,0.814753,0.986682,544.042443,236595.245335,36.590904,913.795799,934.381713,93.251410
1788108736.524055,326063.658561,0.084843,0.000000,21.000000,15.116302,0.741303,61.820812,-11.596281,130.212974,-33.716342,118.894194,22.055659,107.081328,135.627279,93.094419,428.805460,42.163095,423.981157,63.596897,451.168930,0.884195,0.962612,0.877664,0.865239,0.872918,0.891010,0.958105,468.508954,230337.103009,36.601143,921.848602,1042.587297,93.858621
1788108736.528057,326063.662563,0.088845,0.000000,22.000000,13.362221,6.975393,57.631321,-6.499569,113.394719,-9.334010,144.183588,-16.221099,222.019811,-83.418740,520.695037,26.607375,178.314636,89.638377,162.430135,170.266905,0.835104,0.837788,0.907439,0.839625,0.807179,0.983461,0.932070,485.741761,275910.652340,36.609468,934.172638,930.611076,94.210402
1788108736.532058,326063.666564,0.092846,0.000000,23.000000,11.741085,14.621946,42.501252,17.626065,81.831409,29.680590,127.626192,-5.764474,192.469161,41.303968,550.415941,-57.333799,314.555596,-43.962974,394.879319,-190.730811,0.823596,0.926618,0.851601,0.866181,0.835062,0.982655,1.051640,476.633476,243366.307225,36.598797,974.743678,967.089326,84.332815
1788108736.536059,326063.670564,0.096847,0.000000,24.000000,10.000000,21.428048,25.454684,47.306312,36.164003,76.988581,48.044428,115.836723,22.596930,316.154509,52.855507,261.507962,37.612565,331.777139,90.767344,297.423526,0.935337,0.921688,0.870111,0.866111,0.892917,0.846354,0.919332,452.217187,251208.507927,36.598003,912.869514,1066.649020,97.377878
1788108736.540062,326063.674567,0.100850,0.000000,25.000000,8.152670,28.616166,12.808225,72.907855,5.836957,119.461335,-13.856915,161.770674,-4.363459,461.843254,-25.487253,295.254651,-31.780210,312.264528,59.635731,280.064954,0.959242,0.927538,0.878958,0.969573,0.937401,0.971360,0.933860,523.454382,267345.714854,36.604748,959.270230,968.195505,97.170374
1788108736.544065,326063.678571,0.104853,0.000000,26.000000,6.502421,34.868595,-4.381488,87.799227,-36.908707,120.842976,-3.344785,176.189568,68.049818,265.399909,120.803882,62.085446,178.228164,-82.466139,496.870844,-123.009408,0.819185,0.892808,0.820595,0.933603,0.873250,0.916218,0.912911,534.385876,247488.155917,36.608874,929.155984,957.944371,93.073469
1788108736.548062,326063.682568,0.108850,0.000000,27.000000,4.762286,41.690819,-6.067431,85.597215,-7.624064,102.980122,47.707720,56.800924,328.815642,-0.420046,222.039012,-102.337900,271.095356,25.505132,133.206528,280.893428,0.832148,0.907621,0.913869,0.815526,0.870009,0.846091,0.941386,542.372884,259439.432389,36.602133,1002.023093,982.579377,84.211257
1788108736.552053,326063.686549,0.112841,0.000000,28.000000,2.931657,42.200892,-15.627365,82.129691,24.987203,49.966605,122.607462,-0.155238,501.604914,-8.794677,133.831693,151.198530,5.814093,312.844382,60.759228,329.906084,0.827011,0.800963,0.832261,0.878557,0.925526,0.800198,0.918298,512.337608,230101.307114,36.601832,980.581578,974.122935,84.711053
1788108736.556050,326063.690547,0.116838,0.000000,29.000000,1.836891,47.964950,-8.190817,64.268534,63.557792,-20.621625,184.205360,-41.881795,126.524360,186.231888,14.037661,227.547175,63.358725,137.942396,251.911230,-79.901658,0.904036,0.818958,0.884087,0.910467,0.859203,0.949255,1.079903,506.888705,256760.320105,36.607434,1033.880927,961.876422,84.596173
1788108736.560069,326063.694566,0.120857,0.000000,30.000000,0.108360,45.802088,2.289797,38.837641,98.137501,-27.943948,153.880422,163.463192,-6.290935,189.763979,16.314967,78.848129,241.705063,-125.808100,233.645036,442.299940,0.968747,0.978535,0.835428,0.902411,0.940713,0.971978,0.954744,467.997205,232086.428877,36.592444,999.995493,1033.442106,80.551756
1788108736.564078,326063.698575,0.124866,0.000000,31.000000,-0.918296,45.502818,14.347674,9.617884,131.940642,9.693256,54.031963,331.695682,6.904579,113.649368,211.173055,-12.522624,174.592100,191.004477,7.810965,766.887516,0.867766,0.808551,0.947112,0.814802,0.898113,0.809381,1.007834,509.392613,267117.169863,36.609073,959.778412,1040.442655,85.632885
1788108736.568067,326063.702564,0.128855,0.000000,32.000000,-2.242053,44.142621,28.780467,-5.572463,117.575450,59.883422,-44.585808,367.215054,91.675493,-19.103383,275.105447,126.305117,-42.345498,275.229174,359.579232,-167.010458,0.894031,0.802953,0.824718,0.913011,0.951588,0.975279,0.915594,474.489906,249656.537570,36.606403,1094.294389,1048.910588,94.855653
1788108736.572061,326063.706558,0.132849,0.000000,33.000000,-2.631134,40.840610,45.625904,-10.010783,80.586044,115.970171,-4.972869,84.060802,177.880216,-7.950557,54.617894,373.753015,46.030910,-55.480776,838.629706,159.254826,0.887381,0.892909,0.876769,0.845773,0.948880,0.800158,1.075274,535.880809,237986.838008,36.598946,928.967094,915.540124,99.301860
1788108736.576046,326063.710542,0.136834,0.000000,34.000000,-3.634043,35.092564,54.112024,-13.145619,32.873280,168.959488,80.152445,-14.994571,148.050737,191.796062,9.533672,132.189721,379.751663,90.262802,-82.329409,361.154081,0.847091,0.809602,0.986665,0.919383,0.959289,0.934253,1.076804,510.073920,258916.056152,36.590414,998.304352,911.374336,83.812526
1788108736.580064,326063.714561,0.140852,0.000000,35.000000,-3.456948,29.762502,72.398910,13.071972,-12.434552,139.473478,264.787822,13.140944,68.212226,206.481747,109.546652,25.841811,192.809275,546.116409,44.375229,-68.738764,0.936903,0.888109,0.967963,0.805217,0.998158,0.991320,1.074341,487.240944,236594.165804,36.590830,964.823667,903.399956,81.548553
1788108736.584067,326063.718564,0.144855,0.000000,36.000000,-4.539127,22.188835,74.429027,34.184121,-25.312952,68.744019,287.952701,66.172436,-77.682322,125.456443,242.016914,93.879093,35.699483,205.152601,481.954217,110.995916,0.970954,0.877354,0.836710,0.872365,0.886702,0.984207,1.094918,514.714564,247817.962755,36.600174,911.499656,914.887563,81.662197
1788108736.588058,326063.722554,0.148846,0.000000,37.000000,-3.653070,14.857893,68.802219,59.237957,3.500262,13.414492,139.921712,150.340143,38.830071,-32.287278,184.037696,339.236051,183.701363,-13.557498,126.438396,338.585328,0.904383,0.977083,0.872611,0.913882,0.919919,0.861534,1.059881,499.381114,246527.610586,36.606186,1073.923051,1052.946660,80.026192
1788108736.592071,326063.726568,0.152859,0.000000,38.000000,-4.367658,8.508807,67.631013,92.425535,27.479973,-38.521632,66.215015,164.574376,126.280723,-46.279171,-17.986530,201.817398,714.040376,165.196476,57.210634,62.785866,0.921211,0.941130,0.875777,0.807555,0.969413,0.988952,1.054043,522.819955,272033.053803,36.595936,1054.173515,933.169755,91.965041
1788108736.596059,326063.730556,0.156847,0.000000,39.000000,-3.845079,1.401575,54.590073,90.146218,65.987980,-17.195679,-9.566378,118.958748,237.087129,165.437699,32.520789,15.941607,265.636122,246.227816,262.755128,73.966735,0.922965,0.929863,0.947914,0.918305,0.957742,0.827145,0.985498,522.958567,263093.622272,36.601574,1013.766228,1060.781611,94.961302
1788108736.600072,326063.734568,0.160860,0.000000,40.000000,-2.182003,-2.499794,37.215089,99.304216,104.168996,36.692955,-33.278726,20.918347,147.174024,283.661599,228.402845,74.091595,-75.748785,86.619797,312.905118,470.660228,0.913271,0.898138,0.983778,0.860781,0.881032,0.887889,1.070792,541.516529,261066.525198,36.595050,974.098149,983.151135,99.331065
1788108736.604064,326063.738560,0.164852,0.000000,41.000000,-2.441463,-3.861804,21.625919,80.368133,119.903107,90.547038,13.411182,-53.443812,9.554412,134.096268,250.764140,479.163799,151.577654,-54.430601,-162.123366,105.292941,0.803122,0.817432,0.962989,0.803676,0.816172,0.814878,0.956660,477.036129,262986.886187,36.603551,1059.224553,910.306110,84.233020
1788108736.608073,326063.742561,0.168861,0.000000,42.000000,-1.156103,-5.732082,4.661884,52.032213,96.736304,145.805860,115.314618,43.138162,-4.237047,-56.679519,77.236443,244.287642,237.002070,326.466669,174.235892,6.393421,0.865960,0.835593,0.957845,0.933147,0.804122,0.956351,1.014349,477.135484,273438.601740,36.606199,1026.389472,970.763531,99.162426
1788108736.612065,326063.746553,0.172853,0.000000,43.000000,0.074862,-9.349087,-10.166645,21.558924,76.879623,130.708664,139.002117,152.976266,82.581362,-8.305201,-177.417852,-96.516963,78.326110,170.445929,487.134068,463.029645,0.851443,0.818727,0.931304,0.992943,0.869018,0.883607,1.091018,537.679188,266497.533316,36.591056,1051.245884,1013.365597,87.245152
1788108736.616087,326063.750575,0.176875,0.000000,44.000000,1.418862,-5.173097,-15.617082,0.385437,33.704787,94.038714,175.980186,214.191612,217.474522,180.146634,186.763225,67.513694,-106.318930,-41.707923,81.813734,277.558785,0.993273,0.852020,0.933732,0.880456,0.852770,0.847339,0.934815,527.471814,240618.087688,36.598698,935.801907,1026.565751,94.624281
1788108736.620085,326063.754573,0.180873,0.000000,45.000000,3.279211,-1.137401,-7.904260,-15.784467,-8.818657,34.993777,79.035437,120.398020,176.970842,179.090115,516.677971,234.093195,206.272116,126.253370,107.916321,93.505583,0.929343,0.904864,0.871789,0.874408,0.985737,0.995189,0.931824,473.095493,267924.539222,36.599990,955.252643,1057.155565,90.325982
1788108736.624085,326063.758573,0.184873,0.000000,46.000000,4.619985,0.493240,-10.832732,-18.776228,-10.394590,-21.349339,19.072326,17.236690,65.705534,123.740018,180.939946,231.031223,281.249986,343.404089,263.619751,739.234538,0.815786,0.834094,0.877570,0.933370,0.869840,0.834991,0.941187,505.783461,273893.070189,36.608541,1071.519942,939.712648,83.546385
1788108736.628085,326063.762573,0.188873,0.000000,47.000000,6.595735,8.504305,7.155873,-6.959108,-11.620418,-30.859373,-51.908373,-51.269496,-12.847668,-8.510833,-61.507926,55.595555,28.394422,122.363971,263.967091,177.410040,0.855573,0.981364,0.998104,0.978860,0.977372,0.920955,0.954227,515.457194,263267.877799,36.602893,923.843890,1088.530625,88.646592
1788108736.632090,326063.766578,0.192878,0.000000,48.000000,8.140220,14.179010,17.494706,19.161020,26.473966,9.098621,17.294333,-12.527847,1.395175,41.372506,-9.893627,-90.324826,0.568862,-59.756336,-199.028654,-72.287581,0.852705,0.983297,0.899530,0.874404,0.833801,0.860257,0.905049,528.441942,243965.438490,36.603187,1007.319272,1013.872146,86.294562
1788108736.636087,326063.770575,0.196875,0.000000,49.000000,10.000000,21.419420,33.752278,49.372303,61.721191,85.298988,108.779338,114.304508,151.584023,321.408020,147.474181,174.952070,253.272395,341.341667,573.827549,322.951640,0.895781,0.982566,0.940216,0.913981,0.936841,0.886415,0.912817,505.655250,275663.293887,36.591082,958.470957,918.531722,91.129812
1788108736.640091,326063.774579,0.200879,0.000000,50.000000,11.779341,29.162460,49.278420,69.372315,103.029414,138.162655,175.703793,197.490682,174.404351,383.511930,244.148409,347.259760,293.131919,638.926787,231.261027,221.937157,0.872039,0.863363,0.867927,0.930326,0.895407,0.994771,0.953139,516.859012,259795.619056,36.603514,946.271801,913.614000,93.867177
1788108736.644092,326063.778580,0.204880,0.000000,51.000000,13.413946,36.188694,63.106326,98.522307,136.732038,164.185035,136.973886,166.955053,124.760336,226.599377,94.409378,48.421851,21.025879,-177.116167,46.504341,-49.033653,0.862524,0.907793,0.946031,0.903529,0.845037,0.838257,0.943859,454.064444,276270.830394,36.591156,968.849932,1043.631944,86.184735
1788108736.648091,326063.782579,0.208879,0.000000,52.000000,15.205354,40.760899,66.989038,100.013387,99.808137,109.290494,88.411589,56.842435,7.178439,-60.011106,-109.464363,25.501577,28.017194,112.020980,161.020709,343.708311,0.812487,0.801121,0.928485,0.821852,0.852348,0.844561,0.903988,529.972830,240138.283352,36.596412,985.218881,974.030325,99.876822
1788108736.652094,326063.786582,0.212882,0.000000,53.000000,16.593314,45.517118,71.009311,91.395089,74.960191,49.187875,6.126410,-5.277311,-107.423589,-19.725230,49.683692,149.692008,203.351756,243.979446,398.279900,334.697774,0.803735,0.853715,0.979500,0.922662,0.871234,0.860895,1.034544,519.944845,268943.281092,36.594944,998.420597,1028.585471,91.102608
1788108736.656094,326063.790582,0.216882,0.000000,54.000000,18.290972,49.303042,66.875352,69.973591,37.233783,6.636082,-45.242931,-39.135634,113.827329,134.801814,322.933970,288.932252,264.190180,133.979290,-58.389685,-68.343976,0.960380,0.906564,0.935504,0.942707,0.803944,0.806223,0.940882,536.631721,266061.060682,36.595688,903.857405,904.709647,84.496858
1788108736.660097,326063.794585,0.220885,0.000000,55.000000,19.217659,45.852660,62.738525,38.749212,-11.769918,-10.245544,-9.184100,89.410422,436.862874,292.206496,178.052835,76.266461,47.843105,58.407192,5.566794,190.774240,0.823867,0.949335,0.881379,0.887724,0.847853,0.861483,1.029058,547.883004,257234.054416,36.590241,901.255840,1096.543822,96.489655
1788108736.664096,326063.798576,0.224884,0.000000,56.000000,21.010421,48.443154,46.428143,13.841153,-3.342307,16.808007,90.667977,192.826660,155.291668,125.627552,51.589332,-85.660552,62.573902,262.117876,379.392271,359.713851,0.815500,0.850620,0.898221,0.945511,0.983399,0.897896,1.027442,482.568432,270010.493909,36.590946,909.826461,905.921068,87.948192
1788108736.668097,326063.802577,0.228885,0.000000,57.000000,22.484726,46.893982,31.041468,-15.169625,-8.053918,59.873807,150.293222,178.554563,88.089720,-67.601613,-37.468923,124.061964,598.271978,286.562110,123.465023,-38.215742,0.942278,0.838789,0.956351,0.878665,0.932571,0.812842,1.089481,509.497314,263973.670175,36.603633,1039.510460,1016.387758,88.380735
1788108736.672099,326063.806579,0.232887,0.000000,58.000000,23.289561,39.222222,15.715274,-13.169232,26.726811,118.067020,187.067421,83.293307,23.779964,-47.366700,193.910203,298.783687,415.488791,36.870734,-112.296112,159.590463,0.850339,0.982967,0.990890,0.906238,0.948377,0.854559,0.993101,484.232994,278622.937884,36.592614,1019.927757,942.504660,90.579828
1788108736.676101,326063.810581,0.236889,0.000000,59.000000,23.694347,35.399351,2.357242,-15.436578,64.214489,138.838195,106.147467,-27.171044,-15.779283,189.468825,219.510762,278.441881,31.244605,3.914453,331.240297,604.637032,0.944324,0.982960,0.926372,0.886972,0.919296,0.962911,1.032601,479.919219,267060.445819,36.593602,913.949432,1063.100740,91.867516
1788108736.680141,326063.814621,0.240929,0.000000,60.000000,23.347019,29.259912,-7.425497,9.102622,95.807708,113.839448,18.165011,15.180594,139.593280,289.220204,110.591722,-8.334023,69.591149,427.275155,263.230023,-45.455891,0.840815,0.813086,0.885771,0.813306,0.963471,0.864338,1.056408,522.961269,228586.073037,36.597352,974.596736,1061.094586,84.640107
1788108736.684212,326063.818692,0.245000,0.000000,61.000000,24.291921,22.265487,-13.571179,34.578587,122.333433,73.753992,6.279401,124.065299,234.333524,136.373242,-95.167235,190.321479,345.424509,209.171244,-87.822242,228.875677,0.906253,0.893682,0.836600,0.972160,0.898380,0.898252,0.922603,450.862149,239451.257496,36.604856,1075.103625,902.873545,80.776210
1788108736.688118,326063.822598,0.248906,0.000000,62.000000,23.424582,15.498418,-7.261111,65.612221,105.691475,6.159078,-17.521114,316.305673,147.676674,-75.315389,71.438470,310.944192,175.899533,-82.767123,153.889661,502.034420,0.986290,0.818317,0.830154,0.997900,0.923664,0.867774,0.941168,502.858019,267092.815949,36.605473,1042.640565,918.440393,82.670616
1788108736.692123,326063.826603,0.252911,0.000000,63.000000,23.392453,8.372194,-4.233916,91.057775,80.402124,-39.912154,73.384684,331.344923,34.645459,41.661045,244.806749,163.258770,27.726777,152.285888,678.478341,-49.052902,0.821702,0.944626,0.922810,0.851601,0.880968,0.816060,1.011146,532.586429,243507.954639,36.606613,1061.300263,1031.767247,97.997786
1788108736.696117,326063.830597,0.256905,0.000000,64.000000,23.531714,1.963475,10.307658,105.132236,34.933002,1.929429,164.130965,103.426250,-54.326455,160.242171,245.868520,-26.579682,125.949379,241.109775,-42.812110,91.450542,0.931131,0.838255,0.934827,0.992398,0.981549,0.972280,0.913900,487.201484,233081.222934,36.606658,902.543076,1092.969661,81.807165
1788108736.700187,326063.834667,0.260975,0.000000,65.000000,23.080058,-2.828540,22.730963,89.726818,-14.985973,38.838852,132.721277,17.103748,44.061663,282.237724,82.579024,11.202243,382.745430,49.696978,43.365193,505.971314,0.900189,0.970589,0.950828,0.875558,0.936099,0.869896,0.988910,500.253643,254651.706677,36.591920,993.205028,1024.319857,98.926638
1788108736.704129,326063.838609,0.264917,0.000000,66.000000,22.282379,-7.562513,39.270987,77.263012,-25.622769,98.308984,104.997679,-43.912758,201.723928,112.882583,-21.012330,346.366140,110.984329,-92.950367,250.188808,136.063475,0.831851,0.925716,0.862765,0.864374,0.945015,0.985401,1.013294,463.110551,269100.985586,36.604621,917.381301,909.999699,80.928634
1788108736.707527,326063.842007,0.268315,0.000000,67.000000,21.333087,-7.311884,52.634658,55.221958,-14.089904,135.958862,23.260822,52.882580,160.613560,-74.181285,272.077434,244.370667,-124.886934,557.438498,123.739977,115.285270,0.824109,0.954908,0.856662,0.965321,0.881741,0.836289,1.022031,526.783454,275867.000966,36.591521,980.990832,1005.964285,84.562405
1788108736.712300,326063.846780,0.273088,0.000000,68.000000,19.860019,-10.359683,63.193772,22.333901,26.969915,141.692237,-43.459732,121.186096,103.890549,7.491408,282.444674,5.636367,183.021473,481.175502,-163.748618,211.896721,0.972589,0.842524,0.878099,0.868426,0.832758,0.904613,1.067452,505.241002,272218.361729,36.596957,1018.102117,1062.489340,83.212543
1788108736.716109,326063.850581,0.276897,0.000000,69.000000,18.392585,-5.729540,73.850423,1.765415,67.498293,95.718531,-11.697741,163.675381,-34.581909,157.834575,135.617519,-52.601988,216.529039,-227.200707,192.057645,114.939336,0.979812,0.982854,0.989567,0.835966,0.890214,0.928293,1.071791,537.393198,232307.574601,36.601273,1030.138790,905.056590,94.700048
1788108736.720145,326063.854617,0.280933,0.000000,70.000000,16.650459,-3.024690,75.376910,-21.135831,108.758309,24.472871,135.059134,138.203138,13.686424,189.790083,18.558452,234.859080,98.804109,120.327949,211.978345,114.544219,0.981720,0.925610,0.848014,0.943334,0.807001,0.858689,1.038386,478.370437,231934.088964,36.597187,1058.357073,1037.402158,90.689277
1788108736.724141,326063.858613,0.284929,0.000000,71.000000,15.444179,0.226706,63.843952,-20.507101,121.568750,-17.720078,281.419586,14.429159,113.427196,131.752090,23.829910,310.506378,-121.537948,257.437403,1.363873,334.513146,0.839769,0.880827,0.819297,0.945503,0.873645,0.949141,0.985292,468.253145,274397.564331,36.603645,973.432399,977.143879,86.524051
1788108736.727736,326063.862208,0.288524,0.000000,72.000000,13.571305,6.666214,59.081111,-7.624880,123.205034,-42.643044,171.472234,-12.381384,248.005628,-68.562422,187.318181,-16.172379,240.411019,113.780087,160.105329,212.646161,0.938927,0.811830,0.955361,0.892019,0.944088,0.855653,1.065091,479.631463,245147.642839,36.593221,984.179558,948.799034,90.368407
1788108736.732254,326063.866726,0.293042,0.000000,73.000000,11.752921,14.450898,42.113687,23.813913,79.270974,24.770852,124.480535,19.552114,204.744212,-38.382257,185.825212,29.585293,379.058511,-115.728613,422.691039,-70.913558,0.921827,0.973628,0.876379,0.857188,0.931067,0.808559,0.969302,492.084518,235943.443472,36.608459,991.319053,915.680875,83.480029
1788108736.736115,326063.870587,0.296903,0.000000,74.000000,10.000000,21.509306,25.870021,49.784404,38.885164,85.051263,44.269006,107.911722,46.859305,283.432927,55.623452,190.578786,11.811899,315.782156,108.206235,618.068521,0.837670,0.873748,0.855289,0.832058,0.984164,0.893981,1.059186,494.484625,236555.957034,36.602246,907.229393,943.781413,96.636038
1788108736.740149,326063.874621,0.300937,0.000000,75.000000,8.246940,28.847913,11.484739,79.833277,8.421747,141.898228,4.045812,181.078000,-2.574467,526.155186,-93.904867,292.423030,2.141761,352.448764,-20.450412,524.533923,0.888689,0.877058,0.839566,0.936659,0.870247,0.985507,0.946316,478.833641,230761.218430,36.606427,974.276488,920.735546,96.887771
1788108736.744132,326063.878604,0.304920,0.000000,76.000000,6.519203,36.120046,-1.345075,100.000007,-34.558980,144.084171,6.339876,185.938595,13.659447,227.680233,127.935656,22.507747,480.381373,-37.441629,229.133842,-185.130821,0.978607,0.908472,0.945153,0.829381,0.802603,0.944652,1.053511,513.855517,255979.333001,36.605308,1058.871194,1090.866345,87.981752
1788108736.748157,326063.882629,0.308945,0.000000,77.000000,4.617786,39.815512,-12.470860,86.473043,-21.612912,110.798476,45.438913,56.064802,152.360747,-68.870757,229.767681,-52.776594,542.185667,100.229994,127.166213,295.005489,0.964767,0.801259,0.975416,0.835012,0.840037,0.886073,1.019366,467.235119,253066.532139,36.605113,1070.556718,987.279174,82.658859
1788108736.752145,326063.886617,0.312933,0.000000,78.000000,2.867428,45.973975,-8.643685,91.741462,15.654927,52.072905,140.492522,-44.291443,159.125450,-39.500936,149.804661,166.456714,12.686342,250.766092,-106.564688,338.513709,0.933455,0.895354,0.884041,0.935013,0.841437,0.845401,0.999458,517.399117,231826.915063,36.593896,989.038878,910.230433,99.925053
1788108736.756140,326063.890612,0.316928,0.000000,79.000000,1.347709,44.799981,-7.294669,68.137293,67.329558,-10.328607,170.269365,15.356398,124.649542,175.692515,36.335333,570.343838,-41.882991,135.951384,627.277815,23.895312,0.811723,0.915785,0.950781,0.923586,0.915763,0.967079,1.025939,456.466721,270690.031702,36.600006,1075.939449,1043.356634,83.491141
1788108736.760141,326063.894613,0.320929,0.000000,80.000000,0.614214,49.599496,2.575997,38.708242,99.408790,-22.114532,146.345625,90.543535,-38.505519,198.728132,55.376322,201.167774,314.447562,-27.430689,532.308778,214.304501,0.856803,0.860763,0.827902,0.810644,0.830245,0.840090,0.917359,523.096747,228245.470804,36.609825,1066.117375,965.842537,89.103900
1788108736.764147,326063.898619,0.324935,0.000000,81.000000,-1.218004,47.414142,14.364360,7.836400,126.471446,-15.490518,51.409625,214.409348,-4.522404,121.429574,218.667512,-193.011075,238.906828,252.257221,32.281505,308.567102,0.972127,0.836523,0.899761,0.978844,0.834918,0.979993,1.056920,546.570718,231122.700753,36.603162,1038.577385,944.610237,88.283061
1788108736.768088,326063.902560,0.328876,0.000000,82.000000,-2.148693,42.487894,28.935929,-5.631499,114.523307,59.892023,-23.421171,202.757052,186.079759,-22.120247,253.725478,126.386859,31.721722,349.451066,158.668829,71.887166,0.857438,0.823121,0.867963,0.895125,0.979489,0.982591,0.965398,455.482724,252883.812101,36.599598,983.233844,943.856684,80.370970
1788108736.772224,326063.906689,0.333012,0.000000,83.000000,-2.867979,39.639760,46.658851,-23.627199,83.441377,128.806150,-38.861695,82.394551,181.402469,-3.213802,32.242271,276.810149,93.335145,-22.649863,199.958581,159.633414,0.820652,0.808391,0.999551,0.897365,0.841041,0.835468,0.916858,470.675683,267074.530823,36.596943,1027.346345,987.755299,85.938972
1788108736.776140,326063.910605,0.336928,0.000000,84.000000,-3.026524,35.172923,57.772871,-15.529323,33.316961,134.950523,37.711556,-20.669122,195.782735,147.355526,-66.312541,136.407065,313.472590,82.875669,32.824834,496.211155,0.998267,0.908727,0.975861,0.976734,0.898900,0.917046,0.934323,453.718705,269831.049003,36.599114,964.298959,1057.837723,84.176727
1788108736.780171,326063.914636,0.340959,0.000000,85.000000,-3.362016,28.970649,64.206674,3.993736,-13.884709,134.418290,131.441885,-0.087571,59.285342,213.146155,109.406110,9.608857,208.775736,604.708822,69.436257,-55.579169,0.969515,0.890458,0.993212,0.877546,0.927629,0.991554,0.956181,530.887998,242050.794458,36.609745,984.770298,1035.003885,95.440697
1788108736.783759,326063.918224,0.344547,0.000000,86.000000,-4.102403,22.343797,68.120750,33.216511,-20.278754,68.991700,154.086829,56.299849,15.250695,122.610647,296.883811,105.311295,-129.107147,376.847414,260.253790,133.519830,0.800665,0.800023,0.858640,0.959724,0.863805,0.896829,1.096670,485.239557,276634.013096,36.597302,992.853520,1061.181830,92.166595
1788108736.788306,326063.922771,0.349094,0.000000,87.000000,-3.760838,14.964688,69.164563,65.067095,-16.225162,10.295984,135.592653,144.714309,14.526349,-47.715051,319.500213,254.472695,95.438715,-77.510859,130.527626,474.343655,0.869887,0.916655,0.901944,0.889425,0.968158,0.930469,1.039552,458.003102,272953.565703,36.602643,958.552704,1062.209286,93.026418
1788108736.792138,326063.926603,0.352926,0.000000,88.000000,-4.181276,7.571832,61.810763,86.029703,25.109773,0.018484,63.556484,191.953187,175.017720,-3.058322,-42.745207,144.641806,358.775361,154.616316,-79.876926,-61.695654,0.814547,0.924609,0.809582,0.836451,0.927593,0.812240,0.949163,549.215970,236874.695315,36.599021,959.319093,953.769969,80.566193
1788108736.796190,326063.930655,0.356978,0.000000,89.000000,-3.894247,0.949223,52.001943,96.749132,61.925971,-23.514341,-29.968191,122.069197,214.282137,133.480040,43.626690,-5.083635,133.543134,407.347194,291.700180,44.454440,0.859421,0.845669,0.951446,0.978251,0.939431,0.837883,1.052447,467.417221,256453.364033,36.607606,913.303493,956.408116,96.852763
1788108736.800189,326063.934654,0.360977,0.000000,90.000000,-2.612850,-0.707250,36.224462,91.253605,105.552141,34.594811,-18.359489,26.900141,152.819912,228.311920,225.050137,36.123670,-4.094784,19.055248,253.958569,590.647118,0.879135,0.843756,0.884519,0.961420,0.980387,0.842910,1.049618,478.997819,250977.802213,36.598758,942.363735,999.908772,93.018557
1788108736.804145,326063.938610,0.364933,0.000000,91.000000,-2.424225,-5.093583,19.989800,75.677377,127.696444,109.712368,34.375612,-62.337177,-13.522355,125.503732,316.871992,274.341557,156.087440,55.088384,-115.298951,142.972020,0.873195,0.906170,0.896964,0.984341,0.822825,0.811939,1.046463,495.205746,255019.196742,36.596879,950.287357,919.846589,98.647324
1788108736.808154,326063.942619,0.368942,0.000000,92.000000,-0.580915,-10.450713,7.222367,53.779920,124.765115,138.276408,116.401028,76.938711,-82.220688,-19.489791,58.254966,190.667603,298.376063,392.403263,164.784817,53.329497,0.919865,0.819479,0.970614,0.963691,0.807032,0.911412,0.934920,479.299219,257188.060264,36.607869,1058.331210,1027.297437,88.880072
1788108736.812167,326063.946632,0.372955,0.000000,93.000000,0.620269,-9.477072,-9.024968,27.213762,83.594206,155.990055,164.771039,305.576637,71.509909,6.708483,-21.132486,-18.628412,95.409980,262.356685,262.528681,363.141789,0.892551,0.803019,0.908805,0.875477,0.985141,0.812791,1.001058,544.909577,234920.411623,36.602321,902.040293,999.932612,80.655510
1788108736.816153,326063.950618,0.376941,0.000000,94.000000,1.616529,-4.703488,-13.162764,-0.116418,39.093045,96.844676,138.370421,390.357171,163.496001,176.589134,91.744166,-36.273972,-90.079916,-50.722067,35.211811,154.318964,0.834548,0.867663,0.876378,0.961025,0.996610,0.992433,1.098425,461.869094,271497.858170,36.599226,960.018222,942.964028,84.285457
1788108736.820157,326063.954622,0.380945,0.000000,95.000000,2.912259,-4.355827,-11.586802,-12.578667,-1.839844,38.189440,80.115899,136.949499,159.303442,272.757396,268.349029,226.525407,389.663590,112.783707,125.279218,81.408672,0.894739,0.976035,0.816289,0.828282,0.848442,0.814401,1.094580,500.528806,278129.000701,36.595959,965.656831,1014.151034,89.287040
1788108736.824166,326063.958622,0.384954,0.000000,96.000000,4.695618,2.166381,-9.102667,-9.260320,-33.246688,-25.619615,-21.020675,32.163042,72.952000,121.460904,145.240420,205.039862,701.729487,425.669697,732.651486,283.390087,0.957406,0.852692,0.985484,0.936412,0.815364,0.971469,1.084277,523.506316,238967.743948,36.590746,984.303621,989.907206,93.386031
1788108736.828154,326063.962610,0.388942,0.000000,97.000000,6.550399,8.381307,3.404327,3.455129,-21.359475,-33.669877,-43.704663,-21.520936,-39.210788,-50.004557,37.887135,43.684589,34.134451,104.243440,283.581097,187.195950,0.882986,0.962018,0.980475,0.838349,0.992140,0.999681,0.956603,503.235531,269079.198958,36.608292,992.471556,987.776524,94.777690
1788108736.831658,326063.966114,0.392446,0.000000,98.000000,8.209253,14.832356,18.008503,20.035601,25.493149,19.719480,9.337450,0.730617,9.858665,1.129638,-14.822255,-25.848343,0.539859,-0.401266,2.861239,30.543709,0.937944,0.955568,0.804280,0.896661,0.868377,0.920947,1.053595,522.135531,255938.863930,36.597721,1016.374842,941.921289,85.131017
1788108736.836292,326063.970748,0.397080,0.000000,99.000000,10.000000,21.480534,34.066752,49.452614,64.539880,81.235184,98.723597,113.432221,149.756971,313.910838,152.010391,404.823748,230.374979,270.602625,346.395191,253.190984,0.862017,0.856537,0.943447,0.835726,0.913819,0.945595,1.056550,499.412817,254267.252832,36.599274,945.821835,947.143859,89.990704
1788108736.840131,326063.974587,0.400919,0.000000,100.000000,11.784518,27.655790,48.503990,79.889435,93.137045,150.491255,188.688569,184.432499,214.939676,494.972104,325.199221,461.200475,235.821624,304.195336,288.890426,181.895494,0.838508,0.839949,0.979499,0.992055,0.937169,0.891804,0.938823,519.121845,278686.623108,36.597082,1097.865142,1081.481035,80.054729
1788108736.843862,326063.978318,0.404650,0.000000,101.000000,13.357050,36.014064,58.494346,87.791060,106.610003,165.748842,176.669883,179.845331,153.272596,241.629758,100.223269,83.885290,36.531905,6.150987,-171.231428,-244.021750,0.969765,0.888665,0.829553,0.902045,0.934892,0.845266,1.022970,452.501045,239080.748564,36.596388,1080.883581,1078.287571,88.213024
1788108736.848251,326063.982707,0.409039,0.000000,102.000000,15.375919,39.175291,68.140965,101.297456,125.114525,101.005488,95.752297,45.613568,-6.098414,-85.802662,-12.796050,34.621301,-32.769734,123.304769,155.801221,290.201881,0.849478,0.977998,0.836830,0.967629,0.879846,0.955457,0.998229,501.417281,238276.902338,36.598355,1027.675277,1010.645941,81.315880
1788108736.852190,326063.986646,0.412978,0.000000,103.000000,16.863573,44.870683,68.281190,82.129091,82.945813,52.513401,-12.109775,-61.321097,-6.681141,29.696312,50.226504,141.026865,263.878711,807.935015,204.926773,234.212220,0.838287,0.879662,0.876505,0.926156,0.904383,0.995705,0.942564,483.726831,240441.972395,36.593003,1038.829158,994.289709,90.748902
1788108736.856185,326063.990641,0.416973,0.000000,104.000000,17.906643,49.235405,65.205583,66.743224,38.983882,-12.477165,-33.970850,-12.567678,55.488612,179.428423,182.800858,202.155208,263.040508,135.265573,22.417771,-78.355208,0.994703,0.855265,0.806303,0.851150,0.835986,0.983668,1.023189,466.312841,265708.137373,36.590869,1079.988490,981.881060,87.336653
1788108736.860184,326063.994640,0.420972,0.000000,105.000000,19.994149,48.953000,60.202667,38.652194,-11.053303,-40.416261,1.353069,87.172334,206.072877,178.011650,249.387506,97.714201,29.455777,-14.862073,18.491956,441.174800,0.908920,0.924214,0.940826,0.841056,0.971497,0.864862,1.057954,549.428734,272288.618029,36.597338,1045.222454,954.586207,89.899623
1788108736.864188,326063.998644,0.424976,0.000000,106.000000,20.597108,47.754508,48.723842,7.110773,-31.782703,-2.692953,186.406797,175.718003,223.491469,130.726637,-42.126837,5.448796,-21.850775,269.576859,285.341585,537.757554,0.848105,0.963442,0.885722,0.822895,0.996040,0.967740,1.086790,540.730671,241795.294165,36.593051,958.748750,1042.459383,98.072080
1788108736.868190,326064.002646,0.428978,0.000000,107.000000,22.158821,44.600491,31.051865,-11.549728,-21.667936,59.865737,142.582937,209.695803,163.335923,-13.649401,-10.033715,128.090499,358.970388,217.099072,139.416426,-75.674121,0.926223,0.914307,0.858517,0.936079,0.968538,0.878229,0.938489,479.622845,271781.056653,36.603332,989.285492,906.301465,83.424004
1788108736.872175,326064.006631,0.432963,0.000000,108.000000,22.650350,39.779480,14.588224,-15.863597,27.519546,133.982315,169.100189,83.068608,-26.558513,28.935164,151.106175,219.673815,182.034872,63.212848,-74.755508,159.184350,0.927654,0.939854,0.909634,0.999537,0.938161,0.950060,1.082657,451.879849,276318.405258,36.590625,1077.013031,942.755979,84.574544
1788108736.876185,326064.010641,0.436973,0.000000,109.000000,22.927668,35.864056,-0.913349,-19.232731,65.031264,126.454997,109.066138,-9.184933,-42.762479,140.221414,572.872084,133.676469,62.861218,-38.563376,370.653138,305.185746,0.919767,0.815075,0.936090,0.987188,0.910082,0.920942,0.924143,483.165908,257930.277760,36.605775,903.219909,1023.969118,89.062741
1788108736.879698,326064.014146,0.440486,0.000000,110.000000,23.318130,28.927271,-4.483522,3.690012,100.674787,117.078317,19.834918,-46.886890,128.594288,296.812645,213.298647,25.650730,74.229450,259.127506,280.544686,53.648313,0.815136,0.800609,0.968399,0.877475,0.850037,0.811630,1.083835,450.903587,255153.262589,36.608487,910.353273,1029.675647,96.680514
1788108736.884299,326064.018747,0.445087,0.000000,111.000000,23.943924,22.078630,-10.053529,33.282484,103.906648,69.598052,-18.670950,67.687915,198.134360,127.425488,-84.483142,82.860428,348.169052,199.976516,11.587935,80.511416,0.849948,0.974338,0.933528,0.915909,0.867444,0.855695,1.046483,504.577236,270809.057496,36.595566,963.648741,956.594518,87.733354
1788108736.888149,326064.022597,0.448937,0.000000,112.000000,24.229687,15.326073,-5.348894,58.625913,97.959218,-1.181542,-5.531590,166.294187,169.591185,-80.572347,27.788036,192.034389,168.483413,-107.282797,352.767260,219.616866,0.841635,0.946406,0.959233,0.961835,0.937782,0.980332,1.083407,540.079353,268594.578566,36.601737,1094.670994,1040.892516,82.915037
1788108736.892186,326064.026634,0.452974,0.000000,113.000000,23.929025,8.776897,-2.375373,80.215101,83.365149,-23.401206,74.642165,150.526523,29.417840,-29.890870,253.346796,188.642692,-148.471535,181.755424,780.951658,105.779080,0.883194,0.998318,0.821022,0.935810,0.856076,0.843118,1.089792,451.398793,259008.575494,36.597284,907.877517,1080.492576,81.133987
1788108736.895578,326064.030026,0.456366,0.000000,114.000000,23.500552,1.225330,7.249248,100.416684,38.864476,-26.240892,158.041106,118.024985,-41.447847,166.703895,177.143284,-82.153042,269.238176,381.283953,65.623006,56.463885,0.903835,0.819255,0.995320,0.925831,0.918477,0.877827,0.995845,481.130202,236010.401922,36.608568,986.707067,933.597858,90.141337
1788108736.900332,326064.034780,0.461120,0.000000,115.000000,22.818029,-2.236311,24.197968,91.294398,4.395840,35.365938,150.456881,10.536841,56.466223,200.168849,23.449512,55.167363,636.308656,25.479952,58.249049,248.273566,0.900713,0.835548,0.836244,0.837074,0.930271,0.804372,1.092474,509.412452,263725.788450,36.594120,911.330466,1083.290295,93.835600
1788108736.904171,326064.038619,0.464959,0.000000,116.000000,21.838124,-7.024449,39.455794,82.882019,-18.639310,89.221127,119.875387,-3.316447,157.454348,122.450693,-70.872330,240.178375,114.599042,43.007107,289.385751,45.018153,0.978319,0.889075,0.929405,0.848763,0.850609,0.821644,1.007235,522.100098,235029.273924,36.599301,957.943681,939.285880,91.007721
1788108736.908171,326064.042619,0.468959,0.000000,117.000000,20.841525,-6.298693,53.289822,54.095013,-2.502803,132.400621,25.091079,38.931352,240.584670,34.722338,135.780321,221.040458,-2.980833,265.580472,129.353770,-14.851111,0.979029,0.904593,0.981862,0.968892,0.870775,0.834713,0.982816,460.978842,261015.408632,36.601824,1044.808100,900.983859,96.768920
1788108736.912176,326064.046624,0.472964,0.000000,118.000000,19.810676,-9.366230,62.223704,22.321722,26.828362,130.615258,-58.449881,142.808942,106.246664,-7.228252,220.543389,-46.414966,184.352912,548.583659,4.876914,275.072548,0.803134,0.825163,0.853312,0.963395,0.940905,0.973558,0.977496,451.790670,249476.680620,36.604392,1080.484744,901.368328,80.928067
1788108736.916190,326064.050638,0.476978,0.000000,119.000000,18.444338,-7.166991,73.380840,1.344231,61.817966,90.363928,-36.459159,163.424753,-47.339631,153.295238,137.636031,-39.834367,193.968513,-125.012823,270.076527,255.089639,0.838298,0.921795,0.863109,0.870252,0.898057,0.828857,0.957556,486.040261,268670.582660,36.605559,929.278115,984.550450,94.788496
1788108736.920186,326064.054634,0.480974,0.000000,120.000000,16.575841,-1.406505,76.285046,-13.653951,113.035843,31.758883,64.317921,122.644619,10.266024,205.574140,-57.649790,521.773451,96.668226,259.532738,233.901908,-148.061899,0.928422,0.803352,0.834622,0.895754,0.928714,0.820160,0.992707,546.105583,243182.994498,36.593940,908.415625,948.300973,88.178751
1788108736.924189,326064.058637,0.484977,0.000000,121.000000,15.362365,1.137159,71.264771,-21.174439,132.625349,-35.381350,136.204065,42.977296,115.145506,116.827997,30.378780,510.754244,-68.181121,388.027799,-198.048334,775.156183,0.889083,0.958295,0.968315,0.817984,0.902973,0.824392,1.086233,490.587875,247990.242845,36.597374,1050.414696,966.207721,84.468247
1788108736.928204,326064.062652,0.488992,0.000000,122.000000,13.542074,8.722666,53.705115,3.093767,116.088134,-16.973674,174.882937,-24.258320,179.711516,-13.520524,273.201171,27.516361,232.826945,121.584246,161.699947,191.639617,0.922458,0.884428,0.975521,0.801529,0.964153,0.875681,1.098169,507.407378,242169.719951,36.609029,1070.405545,952.539728,94.634299
1788108736.932185,326064.066633,0.492973,0.000000,123.000000,11.762869,14.384539,42.598697,21.928343,77.705934,10.971078,118.188273,0.712007,160.992842,41.465954,226.874439,36.740664,216.940224,-143.608132,247.015382,-38.799503,0.860577,0.953466,0.917716,0.811791,0.908589,0.927116,0.932976,538.923697,268844.414915,36.600247,966.809189,1025.976200,99.315774
1788108736.936193,326064.070632,0.496981,0.000000,124.000000,10.000000,21.377756,26.130402,49.303999,38.060636,75.580732,33.937240,241.168861,52.072001,348.094347,13.795320,164.340152,86.063505,184.275605,21.898139,389.580370,0.993022,0.887698,0.801164,0.932778,0.921932,0.918979,0.942149,469.888332,234940.230789,36.606282,971.407211,944.471215,88.207239
1788108736.939754,326064.074193,0.500542,0.000000,125.000000,8.208566,29.041578,9.203067,80.432299,-12.533515,118.177764,-2.952685,409.030644,-55.953325,526.097873,-75.684973,231.026994,-45.648493,279.873712,-26.741632,275.758334,0.863219,0.820445,0.928622,0.967720,0.835171,0.966812,1.005117,497.288938,264804.448289,36.607882,980.907804,1094.188836,84.169493
1788108736.944315,326064.078754,0.505103,0.000000,126.000000,6.377750,34.320697,-6.084548,84.756660,-25.269893,149.078304,-44.823527,186.111690,42.886978,239.476585,139.295758,88.656104,231.052746,29.429326,443.267470,-170.219809,0.871702,0.936845,0.810057,0.986296,0.955945,0.811453,1.083203,514.592639,250308.584133,36.594028,914.599600,1074.585641,91.945087
1788108736.948163,326064.082602,0.508951,0.000000,127.000000,4.670260,41.008101,-10.267913,101.882524,-18.543705,106.850168,43.794732,55.533868,182.020760,-46.821383,349.039982,51.282253,326.085758,60.088210,279.948175,314.217985,0.980328,0.932738,0.930350,0.941924,0.915004,0.814542,0.948111,461.544589,247383.113693,36.596492,1063.628674,923.063651,83.529478
1788108736.952211,326064.086650,0.512999,0.000000,128.000000,3.003519,43.231715,-9.679098,84.516552,23.752277,50.160893,147.477369,-17.351752,214.938395,-19.280765,134.016144,184.767310,-44.865805,226.908793,-125.587095,397.808047,0.922935,0.836712,0.905702,0.876538,0.910811,0.965834,0.922528,463.123779,249927.434361,36.599101,1032.976499,974.643168,92.853359
1788108736.956204,326064.090643,0.516992,0.000000,129.000000,1.475038,48.639214,-6.054725,66.674250,62.009802,2.235234,146.961640,13.979226,110.838702,135.412251,10.568004,241.487184,57.783732,136.159446,493.555315,-143.894213,0.886341,0.834227,0.817450,0.873885,0.864762,0.851813,1.092609,534.085865,255029.844334,36.590432,925.319330,1040.437517,85.826382
1788108736.960195,326064.094634,0.520983,0.000000,130.000000,-0.054999,48.433436,0.884500,38.431378,109.854583,-30.918227,137.913205,88.672802,-25.355820,235.015547,44.475524,107.868306,338.914445,77.071497,246.227159,190.283296,0.937047,0.949071,0.969748,0.994149,0.944490,0.890661,0.942491,503.389440,251359.083855,36.591082,902.396064,1029.656144,97.636291
1788108736.964217,326064.098656,0.525005,0.000000,131.000000,-0.946865,47.988869,11.992338,9.162707,104.370104,12.311673,46.904286,186.572875,-8.353208,122.096553,429.227027,-36.766795,238.180237,262.880082,-184.989354,422.455027,0.916318,0.827906,0.855823,0.937825,0.810422,0.828436,1.007623,508.780653,268069.274558,36.606889,950.989175,1007.632996,81.984268
1788108736.968241,326064.102680,0.529029,0.000000,132.000000,-1.720502,45.158107,28.935753,-1.933371,118.980909,59.856299,-37.599333,177.691323,92.058689,19.404318,422.100250,127.959844,30.184600,246.538497,161.246393,-169.420996,0.908989,0.947741,0.979672,0.803043,0.910555,0.912823,1.081166,481.750950,274516.671859,36.597193,1090.801301,1052.806510,92.644768
1788108736.972191,326064.106630,0.532979,0.000000,133.000000,-2.316522,42.040096,42.988315,-12.468148,85.584581,131.262892,-50.181361,82.582301,251.621040,-39.709993,109.496977,284.299204,71.858914,88.098234,376.389051,158.596183,0.816722,0.832085,0.807151,0.892046,0.906104,0.811579,1.040400,525.038481,254249.037967,36.603215,939.131351,966.304346,84.221293
1788108736.976207,326064.110646,0.536995,0.000000,134.000000,-3.154427,34.395425,59.848687,-13.786185,33.933166,151.348609,33.664830,-38.712479,428.290902,154.654190,-37.792988,128.174980,553.867543,81.465787,-19.013288,805.627998,0.945452,0.878223,0.842752,0.895988,0.849991,0.902777,0.966080,465.097106,239802.930966,36.592421,1037.532859,1023.163717,90.507817
1788108736.980209,326064.114648,0.540997,0.000000,135.000000,-3.913177,29.431108,72.171414,2.868560,3.122390,116.519319,105.617131,0.764591,116.806321,190.078641,109.387398,30.054047,190.042500,610.176624,-1.000164,33.285859,0.868462,0.996441,0.844551,0.974576,0.851708,0.964840,1.032774,494.464071,237122.477524,36.592911,1081.584912,996.113373,94.433941
1788108736.984231,326064.118670,0.545019,0.000000,136.000000,-4.701236,22.126624,68.024950,33.294262,-10.437003,72.684555,200.693888,66.088760,-86.229224,118.854769,339.593497,95.031167,-50.864040,427.781741,330.130294,185.859599,0.851011,0.808543,0.910027,0.808352,0.901811,0.840947,1.089345,532.065054,269433.685902,36.604634,1076.627754,1039.217904,81.800658
1788108736.988210,326064.122640,0.548998,0.000000,137.000000,-3.466762,15.073875,75.920394,63.591596,-25.339390,18.465144,135.743378,177.078814,26.172193,20.791723,164.195060,218.337176,106.057586,-100.095517,135.044914,484.520624,0.857819,0.826886,0.942306,0.828828,0.952753,0.803862,0.922693,488.739699,256475.800865,36.591535,989.538791,935.452076,95.480973
1788108736.992205,326064.126635,0.552993,0.000000,138.000000,-4.380948,9.130668,61.422708,80.708632,23.512388,-40.641202,66.642148,160.345359,140.734828,-49.360978,-89.215646,145.661775,223.925645,154.507637,-59.914203,96.550278,0.973140,0.974986,0.976297,0.937086,0.822208,0.836128,1.023613,494.463598,278644.117814,36.596432,984.689621,1060.559163,81.608305
1788108736.996215,326064.130645,0.557003,0.000000,139.000000,-4.026835,3.990791,53.919496,88.434554,60.674293,-24.509451,-12.403967,108.652751,260.465949,184.444504,-48.137784,-154.651694,138.476241,396.204237,263.919109,-10.756462,0.888085,0.934764,0.851078,0.936771,0.815453,0.961130,0.928895,545.741924,269948.027289,36.608000,944.694192,934.065486,91.094533
1788108737.000217,326064.134647,0.561005,0.000000,140.000000,-3.415167,-4.376583,35.834278,86.972436,115.109854,43.185835,-73.821419,-16.427806,131.244051,259.710270,201.024152,118.474755,65.094874,-8.771954,278.001016,493.682535,0.869819,0.907837,0.961354,0.859470,0.852119,0.916395,1.056367,514.470366,236204.199124,36.594704,910.905799,903.078168,88.132961
1788108737.004204,326064.138634,0.564992,0.000000,141.000000,-2.142734,-7.751977,21.604971,78.287703,115.506387,103.863382,43.023083,-64.702022,8.999262,118.894074,246.372903,535.693955,142.761935,-97.710846,-86.882075,42.657579,0.962001,0.916291,0.934236,0.894094,0.980806,0.808663,1.093996,545.494419,274078.163236,36.608947,972.882070,996.405093,83.373214
1788108737.008211,326064.142641,0.568999,0.000000,142.000000,-1.248931,-5.757093,7.599367,50.379968,103.115788,121.417615,99.910087,30.953400,-7.422682,-11.915923,50.979823,176.438634,323.897821,236.196164,169.992890,-99.819641,0.801708,0.823704,0.812599,0.852838,0.947529,0.842242,0.990804,546.759416,235681.986191,36.599629,1059.159283,1037.955573,92.594757
1788108737.012216,326064.146646,0.573004,0.000000,143.000000,0.366335,-9.359396,-2.661897,25.488108,77.862610,131.368983,138.264177,159.455666,76.431034,-44.627389,-92.352476,62.024035,84.095768,288.205368,609.518835,294.283840,0.871253,0.870271,0.805149,0.892134,0.928496,0.977447,1.007472,485.198194,236059.593531,36.601251,962.990206,946.365390,89.303286
1788108737.015599,326064.150029,0.576387,0.000000,144.000000,1.545708,-4.119197,-16.372484,3.820692,36.516098,93.180877,159.104233,224.902611,210.505153,138.453823,100.305575,1.624494,-11.489365,-46.491720,109.136809,121.092734,0.931686,0.830626,0.976477,0.988870,0.889013,0.875145,0.941004,452.356645,263263.970692,36.592567,1043.311853,1026.213279,85.871881
1788108737.020401,326064.154831,0.581189,0.000000,145.000000,3.178942,-2.015376,-14.979695,-22.825973,-7.074388,28.301032,77.909435,157.760395,217.081536,256.475735,316.354168,292.368642,158.648165,121.527364,116.682914,-29.528671,0.818030,0.911655,0.924670,0.970994,0.871104,0.815338,1.045531,521.476151,266602.211090,36.607808,1055.354913,957.292813,94.289429
1788108737.024180,326064.158610,0.584968,0.000000,146.000000,5.053998,-0.072818,-1.213294,-25.986885,-27.783528,-12.000291,10.687581,41.529213,76.486317,137.490495,226.430159,266.589172,350.759812,373.361868,239.175899,243.180643,0.892098,0.981045,0.855816,0.911341,0.812280,0.820212,0.944746,456.845300,269488.114684,36.598927,917.937364,1019.733304,91.471078
1788108737.028220,326064.162650,0.589008,0.000000,147.000000,6.648492,7.484285,6.401795,-0.047010,-20.679263,-7.305861,-4.543818,-66.270022,-67.461659,-25.675158,21.929854,-36.913246,88.969515,109.330744,144.633086,171.133496,0.888474,0.969586,0.966879,0.951145,0.897358,0.841407,1.033490,502.553864,268839.432177,36.593063,927.331885,969.007929,96.316483
1788108737.032226,326064.166656,0.593014,0.000000,148.000000,8.257080,14.390720,16.710662,19.977062,25.990438,16.649103,-0.466561,10.974382,-7.733353,28.839451,-60.123483,-23.404041,-34.842195,-80.999003,-134.752362,-212.293842,0.883917,0.884489,0.944215,0.855590,0.830610,0.931959,0.960939,459.357770,271447.504838,36.609070,1054.110942,914.324075,99.831326
1788108737.036246,326064.170676,0.597034,0.000000,149.000000,10.000000,21.453247,33.847110,49.940903,66.625892,86.181048,90.867039,129.388561,135.208289,340.932298,179.389586,194.540888,277.131532,223.885689,360.541636,551.571489,0.916429,0.875708,0.875101,0.952304,0.918770,0.969077,1.000903,523.273891,236815.157134,36.604765,1012.787875,1086.358400,88.413950
1788108737.040217,326064.174647,0.601005,0.000000,150.000000,11.849644,27.561763,51.086803,71.106523,110.880289,138.744433,135.691240,160.509620,208.983330,406.871216,292.252710,303.573704,363.674677,340.410770,246.341532,455.052005,0.855663,0.902404,0.921972,0.990573,0.890995,0.850196,0.947432,476.521133,232697.110094,36.607035,1038.916537,1016.128199,88.858106
1788108737.044221,326064.178644,0.605009,0.000000,151.000000,13.420400,35.603564,66.738537,85.058341,128.180376,150.462771,162.249599,139.120583,144.809859,278.572015,88.327968,15.768809,28.192859,-69.206317,-16.217608,-303.492086,0.975893,0.801125,0.879599,0.906048,0.950162,0.885045,0.923747,502.108254,239404.537493,36.596789,1025.812961,1002.738652,90.738895
1788108737.048227,326064.182650,0.609015,0.000000,152.000000,15.182531,40.085030,64.613439,85.964625,123.090584,99.719809,94.810717,57.949155,40.352239,30.672374,14.257647,-6.537044,69.551436,106.785688,173.591164,196.735649,0.957494,0.838510,0.866386,0.998629,0.829472,0.980266,0.916979,467.981731,243887.174609,36.591867,1081.893548,911.109162,82.755852
1788108737.052224,326064.186647,0.613012,0.000000,153.000000,16.696316,45.929811,66.617496,91.574748,83.116944,51.186048,-7.162341,-67.292574,-2.477375,14.359237,133.458185,154.088794,499.307104,595.756854,201.141596,315.300832,0.875970,0.813670,0.856595,0.847612,0.989706,0.898493,0.969020,513.501710,239459.601190,36.604295,1011.276023,1097.717730,94.878276
1788108737.056224,326064.190647,0.617012,0.000000,154.000000,18.380486,45.420844,74.108975,61.896276,38.733439,-5.873937,-44.779872,-31.404260,61.787496,177.213972,553.683168,245.778882,182.084405,245.413363,2.189952,-17.226831,0.967095,0.982319,0.843462,0.814151,0.974871,0.955974,0.914523,523.418709,247915.737468,36.607263,985.385478,916.800863,97.633726
1788108737.060228,326064.194651,0.621016,0.000000,155.000000,19.895584,46.145646,60.734990,38.678014,5.203072,-44.940024,-11.612861,174.388598,221.181413,198.983931,345.881520,86.403967,-38.191758,24.063202,-35.878548,204.628796,0.832580,0.924063,0.906952,0.851941,0.820635,0.807725,0.994844,504.131482,265034.145172,36.598336,1081.483307,929.523032,86.208333
1788108737.064235,326064.198658,0.625023,0.000000,156.000000,21.046772,45.884843,45.886930,16.156743,-15.392239,13.083163,85.215158,374.894008,254.254198,122.891463,-46.067135,-111.626906,26.533374,232.288118,230.766356,450.597719,0.828706,0.801288,0.821250,0.841551,0.947579,0.915202,0.997340,499.051736,247430.941709,36.599044,990.691258,962.595479,97.235022
1788108737.068229,326064.202652,0.629017,0.000000,157.000000,21.460192,43.240185,31.012797,-12.506426,-18.365050,59.873376,127.943125,173.642724,86.978368,-52.702850,43.959766,126.242269,235.277654,390.784297,142.674706,50.099830,0.976365,0.930049,0.869700,0.862141,0.853705,0.854864,1.099571,511.122809,267415.078826,36.600509,943.232735,1086.734287,96.000807
1788108737.072238,326064.206661,0.633026,0.000000,158.000000,23.049464,38.811710,17.147036,-16.426491,23.305208,130.021019,153.755165,83.779957,-9.947127,-10.399034,144.306697,317.242594,160.290635,98.402373,85.161572,159.815203,0.978167,0.905088,0.941371,0.837265,0.986647,0.883468,0.959516,481.767105,254632.025499,36.607968,977.437274,950.484029,91.272940
1788108737.076235,326064.210658,0.637023,0.000000,159.000000,24.062391,35.938719,1.441174,-17.344671,62.539674,142.136911,108.292902,16.540212,-18.736483,140.405087,184.789289,297.754672,7.886013,13.984346,491.084389,368.880782,0.819160,0.850195,0.849742,0.872991,0.802271,0.874445,1.020210,524.271831,251719.633902,36.602960,943.022549,986.499827,83.642284
1788108737.080252,326064.214675,0.641040,0.000000,160.000000,24.560640,28.993641,-2.808042,11.266075,89.715651,140.433772,20.193913,-35.470796,128.932745,262.818548,110.274410,-182.888308,100.971914,402.497487,581.540097,-35.146797,0.861094,0.967150,0.940648,0.949442,0.883290,0.969605,0.905411,528.963179,268377.678147,36.590687,967.087255,911.121117,99.467714
1788108737.084239,326064.218662,0.645027,0.000000,161.000000,24.368256,21.932402,-13.602276,35.204342,126.245622,70.348294,-35.907240,67.586273,472.872289,116.658598,-17.493050,165.452141,266.155960,214.646087,-82.442722,78.562075,0.930958,0.872333,0.810267,0.988991,0.931513,0.972103,1.036836,548.719648,275171.686355,36.604658,978.559808,920.007476,99.289192
1788108737.088241,326064.222664,0.649029,0.000000,162.000000,23.667365,15.317277,-15.405112,64.626591,104.878089,18.156272,-6.127591,178.763521,314.867675,-86.564097,40.887926,211.847370,162.567488,-194.805554,164.264726,474.664332,0.971550,0.850831,0.804484,0.927503,0.932742,0.898768,1.097661,455.726100,239321.583030,36.590091,981.901264,1097.363443,83.507983
1788108737.092244,326064.226667,0.653032,0.000000,163.000000,24.448783,9.387133,-7.262308,92.743509,73.448830,-32.540531,74.839745,168.842185,66.150782,-42.816075,266.340702,205.212850,-79.305322,154.166596,206.915893,96.535235,0.980293,0.828402,0.943492,0.920537,0.913773,0.937640,1.081739,523.838947,237019.776952,36.602321,1053.202454,952.718852,81.484991
1788108737.096237,326064.230660,0.657025,0.000000,164.000000,22.849495,2.312984,7.581616,88.081287,39.034111,-1.349227,131.859639,118.091342,-37.072734,162.157504,188.764501,-59.378038,122.542170,198.606211,-52.519709,149.206270,0.850118,0.813260,0.892849,0.916170,0.978615,0.869863,0.979898,467.301592,274428.189942,36.599124,908.366421,978.195923,84.757622
1788108737.100241,326064.234654,0.661029,0.000000,165.000000,22.832184,-3.276193,23.943127,103.311990,-5.630064,42.082435,150.600745,5.252153,48.549948,256.085748,2.499114,43.625349,388.808394,99.638019,117.720581,681.112546,0.812683,0.825385,0.908056,0.803798,0.840457,0.908079,1.097951,543.310703,240793.916538,36.598704,1000.316136,959.475585,80.331705
1788108737.104246,326064.238659,0.665034,0.000000,166.000000,22.197849,-7.827705,40.251292,76.189555,-5.525729,101.768477,118.729692,-29.758066,199.243160,135.277374,-46.600165,183.594131,116.817326,-4.409734,468.795818,125.624787,0.954996,0.845519,0.991904,0.890683,0.898169,0.898231,0.975761,465.348122,233004.965123,36.608747,986.468384,1020.652726,87.699371
1788108737.107865,326064.242278,0.668653,0.000000,167.000000,20.572047,-8.699168,54.554236,54.910322,-6.395938,116.491209,19.914991,32.315873,206.986376,8.913845,160.286027,158.135092,33.512706,281.915088,141.735382,49.262899,0.885502,0.821889,0.983602,0.885219,0.809292,0.906958,0.960633,521.717450,243408.677369,36.598812,950.572607,1023.238170,87.413578
1788108737.112355,326064.246768,0.673143,0.000000,168.000000,19.939829,-7.747324,62.276491,26.858540,27.445285,158.169304,0.806459,143.977716,98.705772,26.822269,348.886292,20.966842,173.430723,170.456441,-44.719302,239.876656,0.945405,0.997290,0.831814,0.914040,0.953464,0.922261,0.985442,500.315519,270999.265246,36.607438,971.813088,1054.601063,87.283674
1788108737.116215,326064.250628,0.677003,0.000000,169.000000,17.992647,-8.901456,66.298044,0.469388,65.581723,94.124646,10.114721,161.192376,-3.405593,169.725040,138.101309,69.300941,215.811746,-89.421961,285.131409,138.805247,0.976018,0.815900,0.832153,0.870838,0.991490,0.968885,0.909505,454.657179,247373.367978,36.593182,919.206540,1097.467211,98.344680
1788108737.120259,326064.254672,0.681047,0.000000,170.000000,16.534469,-1.430926,68.787862,-14.120129,103.202459,25.622759,62.432236,125.918538,-44.833331,253.368014,-9.906556,224.440740,105.052880,265.632296,217.500146,20.376974,0.897655,0.887492,0.867912,0.831370,0.890158,0.925360,1.088451,504.993121,236267.581050,36.590910,1080.109570,958.115004,80.108560
1788108737.124249,326064.258662,0.685037,0.000000,171.000000,15.282244,2.299391,62.670538,-19.989248,103.186804,-36.605535,163.405315,14.642546,113.036460,134.151541,33.740108,298.198084,-61.611438,560.868014,-10.283044,297.044485,0.837864,0.835041,0.827620,0.834330,0.875674,0.974233,0.925410,521.671284,229721.210577,36.599501,1021.562192,1023.334696,88.367521
1788108737.128241,326064.262654,0.689029,0.000000,172.000000,13.381065,6.933315,53.133058,-8.829786,100.299178,-8.823739,143.219147,-71.880805,168.808861,-36.374349,221.203304,-30.935607,369.364321,112.710627,167.344405,200.564587,0.980078,0.811764,0.941963,0.841714,0.817432,0.935371,0.990449,519.505715,275374.240355,36.598494,979.109291,1063.139627,81.661361
1788108737.132254,326064.266667,0.693042,0.000000,173.000000,11.785296,14.043379,42.472644,22.033926,78.089528,22.543324,137.615434,11.356722,208.563644,-49.832028,184.636741,-43.393421,383.425331,-96.274366,345.795291,92.928549,0.890656,0.913984,0.944760,0.862515,0.860279,0.964720,0.910837,489.191331,245245.422077,36.607530,916.963689,984.837262,89.735508
1788108737.136251,326064.270664,0.697039,0.000000,174.000000,10.000000,21.520466,25.256425,49.839350,33.572155,84.674568,88.054482,128.113289,46.633543,301.637060,22.115721,239.342332,72.818405,304.211340,22.804768,310.408310,0.878097,0.978770,0.819377,0.966848,0.874746,0.814703,0.962747,520.016033,267013.921178,36.597336,1081.354408,1067.584205,93.341977
1788108737.140264,326064.274677,0.701052,0.000000,175.000000,8.282170,28.128462,10.453583,71.899953,3.390781,122.863261,-16.481836,194.082384,-47.557525,506.400856,-153.738173,275.147756,44.650195,202.510135,141.056080,195.143320,0.965950,0.907632,0.948359,0.836850,0.814778,0.959199,0.979548,459.395905,252789.149396,36.597190,981.730166,976.452530,90.116562
1788108737.144250,326064.278663,0.705038,0.000000,176.000000,6.550427,34.240771,-4.645422,82.442636,-3.467595,131.754560,-43.062727,132.508249,38.101134,261.308916,237.014316,14.578052,246.019476,-126.370082,855.831404,24.559779,0.918561,0.878704,0.821370,0.818026,0.951326,0.875919,1.046655,469.647448,275061.706574,36.592033,1065.171312,1077.819935,80.626654
1788108737.148253,326064.282666,0.709041,0.000000,177.000000,4.573356,41.600131,-11.243930,92.302129,-7.273603,106.545385,47.672326,55.770015,164.508495,4.658578,533.693773,-57.972876,319.326071,39.092910,254.843606,184.976651,0.825166,0.850404,0.968676,0.826242,0.926989,0.959250,0.967770,506.198853,258241.487880,36.602369,979.660483,963.555231,85.480142
1788108737.152261,326064.286674,0.713049,0.000000,178.000000,3.047575,46.266292,-7.068126,87.589828,22.114633,49.184437,146.148652,-29.362003,168.577223,-3.968591,169.951034,141.477708,-94.314549,242.303367,46.330725,388.405904,0.886275,0.978013,0.897328,0.937928,0.858532,0.973292,1.018555,468.419162,277154.057125,36.607593,1096.589193,1092.900688,97.239730
1788108737.156257,326064.290662,0.717045,0.000000,179.000000,1.872643,47.068362,-8.542987,61.038723,63.237272,-24.656917,151.892614,16.091929,123.810967,160.432569,-46.688402,672.383107,45.114478,136.954839,237.855844,-57.949877,0.901136,0.805171,0.968182,0.999188,0.930877,0.830388,0.994646,535.249493,229732.181053,36.601076,941.957623,983.544564,91.929374
1788108737.160264,326064.294669,0.721052,0.000000,180.000000,-0.142133,49.936727,-4.130360,38.639971,105.064997,-42.999296,136.198105,89.973104,-12.853351,176.182059,34.674902,171.572364,192.361824,-149.943919,296.339601,455.293554,0.821945,0.888484,0.953046,0.943627,0.903314,0.979203,0.901435,518.159222,230662.003465,36.597805,953.212108,1073.673933,81.547224
1788108737.164268,326064.298673,0.725056,0.000000,181.000000,-0.404081,45.049982,15.687177,11.943354,136.760296,-6.445918,57.033606,166.395409,-9.482857,130.816670,233.415444,-182.489201,267.922891,248.162201,50.411894,605.124615,0.894586,0.834893,0.937284,0.953442,0.982968,0.808300,1.014417,547.963630,274515.013045,36.608742,1050.352813,954.674073,88.330725
1788108737.168268,326064.302673,0.729056,0.000000,182.000000,-1.979488,44.120115,28.835472,-15.729866,104.001662,59.861969,-35.844263,173.706933,92.667736,-5.807553,257.086986,130.040462,-52.133681,397.052812,175.784152,-5.558559,0.898323,0.848189,0.979540,0.911960,0.989243,0.895432,0.935877,467.067927,261254.671851,36.605652,926.400926,1086.212183,83.596199
1788108737.172269,326064.306674,0.733057,0.000000,183.000000,-3.154283,39.282660,46.058991,-9.238695,84.149792,124.898255,6.650850,83.905714,223.935110,37.216377,40.042580,304.331964,85.615778,61.658034,337.154714,159.148427,0.834089,0.829127,0.923965,0.966516,0.822584,0.862813,0.968818,483.573189,268212.128170,36.594936,997.176121,943.050207,93.978166
1788108737.176276,326064.310681,0.737064,0.000000,184.000000,-3.477650,35.394969,56.817422,-10.449706,32.474925,162.064529,44.022351,-45.608934,198.310372,163.635678,-39.677094,133.347056,305.259404,-41.336241,-52.346190,466.483376,0.980252,0.940736,0.904252,0.824980,0.811945,0.990492,1.058178,534.991849,249787.441677,36.590246,1011.328989,968.233704,91.251548
1788108737.180298,326064.314703,0.741086,0.000000,185.000000,-3.477810,28.576516,66.006173,4.936972,-6.227288,123.524070,122.801370,-59.187855,55.042183,256.282023,109.614217,-93.933760,210.980815,311.945036,24.354103,116.505107,0.940253,0.982510,0.890821,0.896414,0.817049,0.911870,0.995308,488.593364,276948.027641,36.601651,967.367818,1034.846618,94.773178
1788108737.184265,326064.318670,0.745053,0.000000,186.000000,-3.441095,22.188162,71.306727,35.347094,-20.095891,70.260832,170.191704,124.789532,-59.395864,112.705962,257.834445,73.599224,21.207640,375.867031,428.540947,63.949033,0.942414,0.924837,0.981483,0.888959,0.957668,0.889850,0.986793,525.484345,241630.728004,36.605435,1045.520311,946.657114,97.138610
1788108737.188253,326064.322658,0.749041,0.000000,187.000000,-4.134702,15.494390,76.355170,63.476851,-2.157184,12.588277,133.435190,275.458817,24.728405,-33.441921,171.452292,346.181898,109.884125,-94.795676,140.510496,228.725265,0.958454,0.932664,0.939198,0.874291,0.934061,0.985266,0.944647,528.702539,229723.961795,36.600688,987.191970,1059.948058,87.664828
1788108737.192251,326064.326656,0.753039,0.000000,188.000000,-3.269786,7.260414,67.179213,90.005148,21.013052,-5.212673,64.190088,221.174378,303.589546,22.102075,-30.991639,206.324823,414.038717,337.316941,-6.720401,24.776495,0.881471,0.929309,0.910496,0.959217,0.965418,0.846353,0.966182,474.026554,230322.941406,36.599376,960.810617,926.350362,85.617615
1788108737.196277,326064.330682,0.757065,0.000000,189.000000,-3.196863,0.729097,53.486165,105.771043,62.240499,-25.203291,-26.702322,109.235298,487.870784,192.064616,6.525123,-56.747794,296.081872,254.519828,190.538134,85.590264,0.967629,0.806530,0.811099,0.820159,0.845248,0.832332,1.014029,506.422028,278532.368653,36.598233,953.680644,1001.047034,82.451989
1788108737.200277,326064.334682,0.761065,0.000000,190.000000,-2.195740,-2.723826,36.930471,92.315190,111.540907,41.357053,2.090544,8.886422,269.197653,303.455278,227.223078,47.312700,-156.097625,88.035724,215.548979,513.212929,0.859689,0.848685,0.963042,0.823507,0.971633,0.960706,0.942792,492.376614,272099.754257,36.594029,913.194898,971.072626,92.080696
1788108737.204298,326064.338703,0.765086,0.000000,191.000000,-1.909336,-8.341408,19.410270,76.419634,127.589041,89.204410,40.517229,0.940167,0.590642,123.003330,246.486906,202.696093,326.732267,-1.992708,-206.715781,36.280828,0.823243,0.913770,0.864594,0.951592,0.808361,0.808000,0.965626,527.951040,254157.733646,36.603984,985.676237,983.170498,93.079962
1788108737.208268,326064.342673,0.769056,0.000000,192.000000,-1.400693,-9.069423,3.451791,51.572193,115.302650,143.004733,116.161100,49.664063,8.024305,-30.799979,66.386901,164.849640,368.258646,273.213178,342.287888,20.586470,0.986500,0.977150,0.844792,0.920529,0.953344,0.802347,1.010266,488.792915,236187.438369,36.598339,982.803891,1043.730662,88.923668
1788108737.212283,326064.346679,0.773071,0.000000,193.000000,0.526153,-9.645997,-5.926417,24.834917,76.622403,129.378861,165.859398,132.745359,74.110267,21.468415,-2.475883,-87.126856,65.990933,248.178717,737.069606,501.503281,0.937755,0.803709,0.822602,0.823530,0.985721,0.952014,1.033950,533.447373,273961.533879,36.598634,1036.302506,1098.672232,95.008011
1788108737.216285,326064.350681,0.777073,0.000000,194.000000,2.039604,-5.951966,-6.015987,8.165805,34.817315,87.816112,167.985279,158.363357,243.758828,144.154983,97.229965,-39.839902,23.068147,52.563162,114.729010,287.181068,0.911763,0.901931,0.983877,0.935576,0.968895,0.949062,0.930407,472.817610,246668.102964,36.609186,1091.875687,1082.184923,90.199501
1788108737.220280,326064.354676,0.781068,0.000000,195.000000,3.018185,-3.503743,-14.731815,-21.270784,-4.107798,19.867348,77.515818,139.663335,197.421408,251.327461,228.780210,183.617435,169.623555,130.534593,35.891426,-20.164050,0.943874,0.952961,0.975639,0.955312,0.937793,0.928410,1.067118,513.826047,275093.131131,36.594329,1028.969531,1092.497773,89.023589
1788108737.224286,326064.358682,0.785074,0.000000,196.000000,4.647645,1.123111,-2.926514,-7.542500,-33.339953,-29.752032,1.261024,13.080102,69.385588,123.355775,151.323814,173.978657,317.819399,264.340055,446.407652,702.734792,0.982174,0.801935,0.920405,0.983761,0.830859,0.958130,1.084299,524.663141,263363.564332,36.603388,981.462478,1022.945180,99.742072
1788108737.228309,326064.362705,0.789097,0.000000,197.000000,6.374917,8.605897,1.330008,2.927931,-13.884150,-3.011366,-38.404703,-40.784850,-80.989970,-84.889218,-75.314072,-15.887475,38.821873,55.919132,130.603487,208.688294,0.944830,0.989840,0.807848,0.957526,0.813006,0.846998,0.929111,484.569577,245154.163618,36.600488,1042.378539,908.803213,84.224111
1788108737.232274,326064.366670,0.793062,0.000000,198.000000,8.180547,13.850782,18.763891,24.359877,17.649191,21.474681,27.804043,-3.215299,-28.828945,22.449667,41.548274,-25.068135,-49.204041,-71.096619,86.297641,18.206657,0.973655,0.833558,0.933644,0.969836,0.959641,0.989895,0.948200,463.441094,258193.372173,36.608906,1077.313054,945.892360,95.731032
1788108737.236280,326064.370676,0.797068,0.000000,199.000000,10.000000,21.316452,33.744385,47.095564,62.159278,85.055686,95.076354,132.725386,149.505160,310.152205,346.917835,380.230858,219.913035,217.161268,223.312798,279.462614,0.953172,0.909995,0.828716,0.808648,0.859140,0.987688,1.084267,539.773064,241523.408340,36.591962,1047.121616,920.457395,87.813510
1788108737.240294,326064.374690,0.801082,0.000000,200.000000,11.831070,27.841693,48.945698,79.954713,110.449301,132.415685,183.429242,187.876553,165.775647,471.433852,198.808738,495.985161,225.464195,340.157454,185.183086,249.362988,0.946695,0.859796,0.834709,0.827389,0.948658,0.950924,0.920689,484.100207,259079.851600,36.608183,939.610604,926.874600,94.018924
1788108737.244279,326064.378675,0.805067,0.000000,201.000000,13.480725,36.127126,64.048594,93.727521,114.897178,161.121264,135.546496,180.204926,126.349193,227.195907,100.004312,110.469100,67.341899,3.738067,-144.681164,-114.531241,0.902013,0.958919,0.905156,0.994175,0.838319,0.839688,0.984730,496.401052,228370.744120,36.599052,967.572878,936.726986,87.505230
1788108737.248308,326064.382704,0.809096,0.000000,202.000000,15.136606,40.904824,75.429167,93.498977,115.359253,121.322097,89.254370,48.626390,26.137254,2.760442,-32.088029,-110.718603,35.426683,53.451357,160.844330,262.908385,0.847680,0.902306,0.834831,0.944933,0.968201,0.952509,0.997479,475.949045,257603.718745,36.606380,1086.093808,1030.874093,91.046312
1788108737.252309,326064.386705,0.813097,0.000000,203.000000,17.075888,45.561955,70.858367,91.564581,77.859796,50.267615,15.785344,-25.282823,-75.493139,32.097413,84.893115,177.099056,183.943171,716.915916,220.513777,236.009722,0.981588,0.866345,0.890856,0.823818,0.924599,0.910158,1.006219,482.184363,232612.873418,36.607600,946.257149,1035.944547,93.718709
1788108737.256288,326064.390684,0.817076,0.000000,204.000000,18.368096,49.643690,64.693472,63.229973,39.286949,3.561845,-40.568417,7.959666,61.455912,182.920782,320.694000,290.448559,193.744818,273.532531,52.902955,102.110799,0.963751,0.803819,0.834394,0.849502,0.877627,0.878459,0.940233,504.456769,276979.953789,36.596706,956.849129,1049.457901,80.037188
1788108737.260199,326064.394595,0.820987,0.000000,205.000000,19.946969,47.890248,56.366778,38.653374,-11.937780,-14.886115,24.754205,92.839872,195.677570,213.811110,246.860115,102.029842,-75.727545,-111.153912,106.076683,215.749780,0.970252,0.994146,0.984459,0.928576,0.956448,0.855241,1.092670,454.093949,260845.165616,36.599360,1073.205811,926.743157,81.217628
1788108737.264315,326064.398711,0.825103,0.000000,206.000000,20.373041,48.471207,45.698119,11.157295,-7.324909,1.832418,90.404666,197.298083,175.643935,127.209081,-30.777292,40.009699,49.459877,185.384543,437.149933,242.305418,0.876556,0.816018,0.947872,0.885042,0.891272,0.976273,1.084975,496.841574,260399.811178,36.595046,909.243174,985.799339,82.695759
1788108737.268307,326064.402695,0.829095,0.000000,207.000000,22.181632,45.912242,31.188081,-17.336542,-14.362703,59.880848,130.679493,174.542107,87.900858,-43.658104,29.479233,125.525729,213.240693,392.866105,286.490051,-201.165085,0.897690,0.886329,0.966113,0.884896,0.862414,0.867938,1.044911,456.282924,258428.936946,36.598323,970.195713,909.673818,90.846861
1788108737.272296,326064.406684,0.833084,0.000000,208.000000,23.082314,41.779914,16.386807,-17.505482,14.837222,121.761204,172.870590,83.305110,13.108863,-3.101582,151.544121,342.283495,419.195404,-69.301137,15.665729,158.635692,0.981046,0.948654,0.874625,0.967297,0.857723,0.897448,0.947250,536.219695,248607.098856,36.604288,903.045233,992.742597,94.212627
1788108737.276300,326064.410688,0.837088,0.000000,209.000000,23.490416,35.832445,0.010940,-11.636633,62.659112,141.744300,189.683294,-49.918430,-34.519624,175.159630,339.228690,129.396505,-180.369195,72.762923,550.554124,888.617175,0.938523,0.858952,0.895132,0.968983,0.889488,0.831944,1.054379,540.429814,252203.367852,36.594166,1089.827491,924.453398,93.456987
1788108737.280286,326064.414674,0.841074,0.000000,210.000000,24.219322,28.339421,-9.855114,6.822031,105.835757,127.230248,29.653956,-39.326282,124.538410,283.979510,110.369177,46.939886,143.318665,368.044636,195.785375,103.193114,0.822109,0.999524,0.980415,0.803152,0.935268,0.884006,1.034429,531.487492,259949.910730,36.600366,992.670495,1034.931195,87.603759
1788108737.284291,326064.418679,0.845079,0.000000,211.000000,24.302670,22.006454,-10.585800,35.072628,107.606849,69.484360,-64.640064,66.819891,231.038506,120.978526,-52.653499,101.047421,235.629112,157.624351,-13.372410,215.512672,0.969378,0.959167,0.913058,0.882809,0.924873,0.961572,1.027423,532.291509,277512.591969,36.602459,1015.299646,1043.193352,83.223240
1788108737.288299,326064.422687,0.849087,0.000000,212.000000,23.590620,15.199596,-7.331821,65.347750,107.977086,2.992498,1.107296,155.086471,143.340731,19.676513,26.011266,280.722431,146.727738,-28.045124,164.500648,342.802712,0.883951,0.961462,0.845900,0.848804,0.923477,0.803010,0.999109,524.084058,259295.925939,36.602508,1091.539943,940.211454,97.098744
1788108737.292302,326064.426690,0.853090,0.000000,213.000000,23.882701,7.935661,-7.306605,92.019496,78.967340,-41.386192,74.037909,223.795428,50.404386,16.105444,210.897803,174.422027,59.858675,157.552887,273.804759,-1.638679,0.829584,0.994544,0.812888,0.949048,0.969263,0.984552,0.983916,535.577972,241419.393601,36.595654,974.985309,1022.857020,95.634691
1788108737.296304,326064.430692,0.857092,0.000000,214.000000,22.834436,3.976373,10.508409,98.016041,33.819460,-27.572641,168.349152,119.540330,2.818045,158.226850,177.977162,30.558607,121.417276,227.025287,-78.861395,134.373792,0.811573,0.804801,0.931540,0.875787,0.979308,0.951434,1.011651,543.601299,268045.515619,36.607334,1058.446989,1042.771801,98.957637
1788108737.300119,326064.434507,0.860907,0.000000,215.000000,23.295014,-3.574328,23.752326,103.211682,10.626982,35.276872,172.762139,17.239940,76.796921,262.696486,-20.586498,11.630511,294.993677,75.610444,117.189496,508.214360,0.978222,0.946117,0.864654,0.906695,0.812881,0.875981,1.069996,465.834705,254406.491476,36.600908,1086.186123,1026.829686,97.298000
1788108737.304340,326064.438728,0.865128,0.000000,216.000000,22.335504,-8.432802,38.462581,83.962249,-28.889749,108.279090,117.917906,-36.937458,332.491335,116.744194,-86.524216,259.489101,109.552854,29.753536,336.328366,49.239837,0.819525,0.883795,0.852581,0.969195,0.840353,0.820457,1.068262,539.534527,232708.429825,36.591357,926.374627,1081.962125,96.651113
1788108737.308262,326064.442650,0.869050,0.000000,217.000000,21.397120,-9.821368,56.406921,50.565924,-13.907357,135.112653,24.039100,53.500537,338.641421,-52.713029,147.815001,221.261123,-41.000958,333.554077,141.011958,109.206546,0.978998,0.888303,0.849260,0.874397,0.948709,0.849886,1.067281,469.488555,236705.933380,36.600747,1019.432486,1035.563919,96.388247
1788108737.312336,326064.446724,0.873124,0.000000,218.000000,19.298113,-7.547161,61.942264,27.424113,25.593281,133.977319,-52.417489,274.062454,106.110299,-6.484979,289.467626,-53.831075,166.282840,193.329830,58.290472,488.337724,0.924257,0.967530,0.934191,0.982387,0.961817,0.860159,1.027208,487.817574,257308.096449,36.592147,1089.572007,919.304237,96.832973
1788108737.316300,326064.450688,0.877088,0.000000,219.000000,18.324105,-7.054672,77.558083,-6.906223,62.496749,82.580790,-9.009717,217.620500,13.989769,152.159744,259.152575,81.483702,202.600706,-140.447363,235.338391,121.465631,0.870806,0.811479,0.987165,0.801616,0.854290,0.856898,1.099420,526.758128,258466.305270,36.609903,981.932527,1030.007929,87.882701
1788108737.320317,326064.454697,0.881105,0.000000,220.000000,16.879810,-2.473089,68.187780,-17.370030,109.501611,33.339116,64.049992,143.717872,-18.776890,170.536048,-127.241318,445.899321,50.209177,248.629047,217.144857,-159.686425,0.904241,0.902570,0.913073,0.911227,0.843697,0.849666,0.936702,477.091851,259261.190381,36.595834,1024.298993,920.207302,83.262731
1788108737.324309,326064.458689,0.885097,0.000000,221.000000,15.384359,2.387162,60.942038,-6.876476,103.600757,-2.686385,142.736694,26.370562,110.238419,125.210766,65.579625,508.563473,41.970698,701.242218,-87.356869,213.198950,0.932882,0.861928,0.810222,0.875877,0.937600,0.961886,0.926221,538.751167,262697.647432,36.593905,1002.496099,956.400709,89.830991
1788108737.328304,326064.462684,0.889092,0.000000,222.000000,13.555714,7.131177,55.726280,-5.933351,118.923227,-33.468216,157.977450,-68.217706,194.691604,33.661793,283.989194,-36.107569,169.865923,183.709695,155.619581,165.894427,0.924500,0.935690,0.938348,0.919663,0.967199,0.871319,1.007831,469.520830,240522.461038,36.593529,1052.643417,942.444549,92.781904
1788108737.332313,326064.466693,0.893101,0.000000,223.000000,11.719325,14.427430,40.430546,17.880517,72.527593,23.863442,133.024648,17.933425,167.966653,18.972221,203.093671,47.098196,374.757969,16.583484,705.105914,-124.289575,0.976414,0.903688,0.943597,0.815092,0.972714,0.941037,0.903327,501.160473,251645.504256,36.607617,1079.208810,1015.854219,93.750488
1788108737.336310,326064.470690,0.897098,0.000000,224.000000,10.000000,21.540643,25.269292,46.908708,36.602906,78.241924,42.597801,120.144854,49.691829,313.121966,65.792437,231.053370,78.270162,325.771476,29.571202,530.189770,0.938595,0.814245,0.830991,0.908408,0.806858,0.956565,0.971050,488.686020,278137.362502,36.605441,1049.464658,968.381835,82.802358
1788108737.339968,326064.474348,0.900756,0.000000,225.000000,8.279442,27.728510,11.821542,68.117406,-4.988236,143.245765,4.190496,228.677036,-35.048966,540.316002,-65.274867,224.742640,-72.889186,298.276923,40.244673,497.580851,0.966020,0.988296,0.821295,0.902154,0.917249,0.916951,1.051196,471.976731,264733.843343,36.609241,1052.281322,967.665122,96.781690
1788108737.344409,326064.478789,0.905197,0.000000,226.000000,6.433502,34.301052,1.986851,90.188547,-17.986812,162.215388,4.901851,174.216865,24.236170,253.199365,135.318734,29.776997,282.123391,-119.362871,231.091547,-129.809275,0.892810,0.853863,0.905438,0.842112,0.989295,0.896154,1.069604,538.470686,253123.836335,36.597919,953.465995,1068.429398,80.550658
1788108737.348298,326064.482678,0.909086,0.000000,227.000000,4.730073,38.609311,-5.496726,97.890729,-5.343136,115.369222,45.081172,59.975860,174.006761,33.764114,240.789360,-98.947363,486.901597,70.989185,129.527158,335.751477,0.920766,0.935137,0.884144,0.975615,0.895003,0.996374,1.050276,454.789203,229336.136082,36.590091,1083.842284,972.081296,91.678974
1788108737.352325,326064.486705,0.913113,0.000000,228.000000,3.148622,46.262488,-8.402151,95.923369,16.214400,52.092131,152.833793,-28.206359,202.086656,23.065008,169.317180,160.689810,-14.221031,432.603461,-159.950691,236.073100,0.865507,0.933932,0.900771,0.959616,0.885365,0.803071,0.982440,477.470776,273374.738331,36.605599,1070.350706,1066.469146,91.164628
1788108737.356312,326064.490692,0.917100,0.000000,229.000000,1.337550,49.006493,-7.735735,64.671162,63.593074,-11.438358,192.388561,-15.331386,112.905868,186.431377,-13.164852,313.917228,2.640524,138.214708,368.108726,-202.912731,0.958804,0.890151,0.862240,0.832156,0.988164,0.910144,0.967006,502.229376,251057.060881,36.602015,961.304118,930.602415,94.145659
1788108737.360329,326064.494709,0.921117,0.000000,230.000000,0.080175,47.540332,-2.870139,38.449728,95.263234,-6.344229,140.483027,93.352421,-32.834924,215.301771,60.525392,91.840596,313.424466,-143.162804,261.879181,235.334749,0.847872,0.883747,0.949703,0.966472,0.875356,0.807362,0.901959,474.298872,236135.364330,36.591595,1049.784087,1083.702334,94.274853
1788108737.364322,326064.498702,0.925110,0.000000,231.000000,-0.695510,46.068103,15.788015,10.912989,110.100219,-14.812920,57.072677,161.666341,-43.826717,136.059513,192.974739,3.944254,258.236035,264.387824,-31.892347,209.141153,0.915844,0.903458,0.819192,0.998878,0.937924,0.815246,1.084105,498.744695,237925.296123,36.609538,1066.012493,1099.369061,92.975176
1788108737.368329,326064.502709,0.929117,0.000000,232.000000,-1.721476,43.651983,28.951733,-2.067885,108.823882,59.917838,-44.295957,191.570015,91.812499,-84.184150,300.470034,131.281093,20.982438,382.367150,171.582733,-200.602489,0.867573,0.902359,0.822310,0.928659,0.968337,0.929077,0.982278,482.634189,231392.821897,36.590145,988.799052,1075.614936,86.545817
1788108737.372338,326064.506710,0.933126,0.000000,233.000000,-3.028234,42.831078,42.724726,-23.914745,72.049828,107.494178,-51.768601,82.623755,171.728035,2.569211,52.225029,241.607765,78.980091,-37.489088,480.132990,158.480135,0.857527,0.984994,0.923131,0.807485,0.833099,0.873760,0.975878,498.811062,266172.991105,36.595837,971.307532,907.363598,85.433251
1788108737.376316,326064.510688,0.937104,0.000000,234.000000,-3.413066,35.787965,54.370975,-8.344688,33.658182,148.497036,40.994526,-15.514891,174.913004,187.084722,-19.128643,131.186162,400.564107,86.310565,40.816133,441.481442,0.878875,0.866647,0.806643,0.983662,0.977594,0.985496,1.027774,529.808881,228567.641072,36.595962,1016.974313,952.861042,95.332209
1788108737.380330,326064.514702,0.941118,0.000000,235.000000,-3.927552,28.821764,64.163585,9.098270,1.032526,139.858049,134.788452,-13.844304,40.310272,286.512459,109.460190,-83.545965,208.277401,278.392669,-17.852485,41.736456,0.865505,0.922395,0.996299,0.844075,0.894224,0.997052,0.955651,461.920222,229085.618115,36.606227,1037.478506,925.381730,92.505466
1788108737.383689,326064.518061,0.944477,0.000000,236.000000,-3.809095,22.040606,71.488104,33.154825,-21.275316,73.444429,170.322105,62.003043,-76.231999,129.783695,265.379753,69.984661,-130.798471,200.658561,385.110315,65.614964,0.812039,0.973945,0.822167,0.829534,0.946926,0.838686,1.016814,496.741765,271574.745619,36.608902,1035.173894,1086.418080,86.759761
1788108737.388497,326064.522869,0.949285,0.000000,237.000000,-4.046848,15.327244,67.482661,61.631505,-8.981163,7.704184,124.112141,152.881973,-14.909882,-20.422099,170.075152,272.721645,105.787672,-14.419267,129.158644,241.549621,0.951711,0.973233,0.870689,0.862210,0.801429,0.922130,1.001014,482.107579,278813.394280,36.602738,1051.098619,981.787352,99.467873
1788108737.392288,326064.526660,0.953076,0.000000,238.000000,-4.015845,7.133782,64.464142,84.733677,16.469777,-47.718043,63.600496,165.262338,173.241557,-29.461470,-2.541611,168.129293,402.151179,366.818440,7.622618,84.589067,0.901071,0.835408,0.820949,0.862652,0.803974,0.918181,0.908356,480.603160,255440.143728,36.599891,1085.294421,962.927303,80.328787
1788108737.396353,326064.530725,0.957141,0.000000,239.000000,-2.990949,3.339618,50.299139,99.060341,64.616885,1.369011,0.140576,108.092219,171.459846,172.675953,-20.043722,-94.055776,137.304815,536.150180,616.636381,123.450758,0.829755,0.842730,0.911286,0.917012,0.888718,0.950481,0.997177,469.220931,268184.279390,36.604118,953.558993,1004.583544,85.869921
1788108737.400335,326064.534707,0.961123,0.000000,240.000000,-2.723819,-2.519394,36.199435,95.244565,91.388113,41.178144,-40.113525,4.573572,144.449561,201.935046,192.546691,89.214555,-92.823768,62.714211,490.822586,637.075776,0.841690,0.963214,0.998252,0.976867,0.954029,0.936047,1.056606,534.873986,240473.786248,36.598611,1094.685589,1032.292927,91.841190
1788108737.403872,326064.538244,0.964660,0.000000,241.000000,-1.486374,-3.721486,21.331557,85.008622,137.236586,107.421205,15.781782,-25.098722,22.276540,131.294090,467.210070,489.991387,147.505571,-92.385526,-177.634566,137.168891,0.915286,0.950606,0.868431,0.925469,0.999844,0.929853,0.987185,508.420115,265736.229136,36.602488,1004.574801,1063.677413,88.725372
1788108737.408461,326064.542833,0.969249,0.000000,242.000000,-0.847887,-9.079462,5.220268,52.771084,122.232788,119.654616,123.524978,31.545396,-72.091111,-26.336905,139.656278,196.589138,401.214855,258.732923,169.275295,46.061259,0.831219,0.984711,0.975254,0.950972,0.860087,0.851918,0.947581,460.894757,259713.811881,36.603532,1055.761815,965.924731,97.664000
1788108737.412304,326064.546676,0.973092,0.000000,243.000000,0.245810,-9.518618,-9.201815,21.950931,83.933236,116.692865,154.566146,142.898510,158.458858,-18.528406,-67.412627,51.447435,76.639788,180.863987,375.960530,394.935496,0.953189,0.941567,0.834092,0.947273,0.967189,0.883571,0.994432,491.062796,262253.703779,36.593159,1080.614592,1060.380385,86.858715
1788108737.416333,326064.550705,0.977121,0.000000,244.000000,1.468275,-3.913048,-14.163482,-0.184935,33.514436,85.085234,324.858358,165.097349,367.744949,158.094773,97.756165,-36.921410,15.980094,33.870965,-65.088410,145.231724,0.988486,0.924374,0.983958,0.908556,0.951183,0.838970,1.099430,510.225731,267248.112910,36.606163,918.993156,1037.629442,97.856184
1788108737.420323,326064.554695,0.981111,0.000000,245.000000,3.215102,-4.586484,-9.036950,-15.079983,9.648989,26.266561,168.911394,128.822100,186.800303,227.245677,274.856817,226.526842,225.549766,133.618523,58.054546,90.476594,0.874399,0.842629,0.902827,0.882555,0.908136,0.827191,1.072369,471.465878,261300.220842,36.598897,911.069039,992.542196,89.739528
1788108737.424355,326064.558719,0.985143,0.000000,246.000000,4.679379,3.273829,-11.738730,-6.585147,-26.947558,-37.166335,-16.938072,18.757397,69.340691,128.852216,150.409511,286.853415,492.184773,438.108264,467.992056,302.487077,0.812034,0.992033,0.968714,0.842322,0.826296,0.865823,1.091727,475.334994,265308.998986,36.608026,967.342983,1016.692754,93.385819
1788108737.428348,326064.562712,0.989136,0.000000,247.000000,6.441995,8.722881,5.043424,1.005226,-11.670700,-28.228505,-39.508991,-53.042096,-54.913384,-1.140586,-40.327001,69.770382,131.167038,64.935366,133.128014,185.120543,0.816781,0.939611,0.972677,0.963761,0.846542,0.966847,1.011209,454.072641,267734.994927,36.600837,957.479613,1011.268036,87.559809
1788108737.432344,326064.566708,0.993132,0.000000,248.000000,8.229551,13.851493,16.913387,18.060070,24.983330,29.588409,8.073483,45.016218,31.268729,-13.451350,-46.704589,-68.320135,-1.193017,-78.827904,-27.210676,-31.546286,0.802654,0.833456,0.951051,0.883495,0.894844,0.998874,0.901115,538.768058,231208.153416,36.594103,1084.400767,1035.950903,90.337872
1788108737.436326,326064.570690,0.997114,0.000000,249.000000,10.000000,21.532344,33.684815,49.097432,60.616675,77.126626,93.117000,250.101441,128.189946,331.159956,154.289342,186.316645,267.489491,232.256211,261.277458,347.832844,0.820187,0.808651,0.860360,0.821231,0.857873,0.953392,0.900446,543.638612,250605.710678,36.600695,1038.919667,942.651934,81.608532
1788108737.440323,326064.574687,1.001111,0.000000,250.000000,11.860187,28.146260,51.731104,70.847084,110.142328,137.589522,179.912730,184.381315,252.865386,479.462501,278.314039,213.538263,317.026997,329.615564,283.970015,191.807008,0.922711,0.890288,0.926579,0.805215,0.924470,0.804643,0.974072,526.185653,265300.018577,36.601379,1015.449902,1056.788084,92.258635
1788108737.444351,326064.578715,1.005139,0.000000,251.000000,13.659325,35.555456,57.835999,95.187401,110.323275,118.790610,167.458652,142.201390,165.134740,245.002277,89.280970,8.965795,-4.329213,-95.441798,81.259066,-48.029892,0.901131,0.932126,0.844173,0.999306,0.871025,0.834590,0.943282,532.899282,258941.623728,36.597918,991.817879,912.449267,89.567307
1788108737.448334,326064.582698,1.009122,0.000000,252.000000,15.466081,40.417293,71.915910,107.464385,103.348168,123.256391,89.119900,62.744486,-19.059880,-7.625264,-89.999521,30.945084,44.250339,26.138332,175.325966,195.697101,0.847086,0.950669,0.904408,0.906439,0.989667,0.939035,0.996589,493.515938,249685.991989,36.596010,950.261738,914.641092,89.198601
1788108737.452353,326064.586717,1.013141,0.000000,253.000000,16.475576,44.234769,70.966960,93.212479,82.478279,50.661906,-1.205925,-27.351990,-79.454843,-47.221052,80.232906,164.029930,266.909671,276.632150,342.624276,318.829659,0.824780,0.997335,0.838588,0.891854,0.990120,0.814561,1.035639,464.024091,266848.103763,36.607182,982.128234,1032.337838,89.067723
1788108737.456380,326064.590744,1.017168,0.000000,254.000000,18.005076,48.087190,63.924044,63.557357,39.154904,-12.397389,-25.160109,-13.959542,63.016515,151.459706,212.434580,248.100220,284.295252,259.655537,87.305526,31.563383,0.831302,0.884427,0.828437,0.855343,0.931961,0.826660,0.953832,471.124081,278528.896896,36.604481,1026.800543,907.281575,87.550654
1788108737.460370,326064.594734,1.021158,0.000000,255.000000,19.910316,45.901674,63.211028,38.897171,-10.692791,-28.354437,-9.540060,90.133533,196.203765,300.212138,214.935667,76.366518,66.854434,-228.678955,159.340547,483.074174,0.985126,0.825292,0.982325,0.832170,0.970889,0.975652,1.086612,518.775396,232276.211267,36.604856,1038.344051,956.712208,90.032432
1788108737.464352,326064.598716,1.025140,0.000000,0.000000,21.314150,46.887975,44.556107,7.938491,-14.530814,15.024219,178.011164,366.427913,416.276379,253.148615,-2.576232,-180.725496,137.099412,408.717616,702.962498,551.181190,0.975851,0.819032,0.837439,0.858135,0.956560,0.976265,0.994998,488.920261,234566.487053,36.595142,904.695749,1051.117190,92.104796
1788108737.468357,326064.602721,1.029145,0.000000,1.000000,21.798078,46.759100,30.980671,-4.112897,3.090649,59.900496,318.814069,320.575403,178.514269,-67.768795,-102.665047,247.019798,657.838925,664.345854,261.442989,-102.182503,0.875385,0.988655,0.998046,0.925016,0.800428,0.800691,0.907393,484.930943,250025.111578,36.599798,1012.292337,973.332344,91.484946
1788108737.472358,326064.606722,1.033146,0.000000,2.000000,22.740710,40.468327,17.093677,-11.115752,20.072358,108.268364,143.167319,82.770634,-42.031184,-6.110118,136.768571,268.212223,178.496945,13.026965,-103.229864,158.948894,0.843933,0.991537,0.930312,0.828399,0.853238,0.863264,1.023137,512.754400,268847.964340,36.591900,1019.559510,1065.883800,86.652176
1788108737.476352,326064.610716,1.037140,0.000000,3.000000,22.798693,35.720612,1.494744,-16.919382,61.438173,161.118033,111.814465,4.791934,15.872266,163.983896,221.205609,128.044676,-34.038808,35.861481,230.266679,399.318179,0.913784,0.984473,0.824843,0.963260,0.886691,0.825739,1.041138,465.281723,243619.549098,36.605045,931.254710,1007.311840,84.017871
1788108737.480363,326064.614719,1.041151,0.000000,4.000000,23.831183,29.371668,-12.438111,3.808038,108.750472,125.762136,10.152324,-20.067500,115.985991,207.037544,110.497738,-19.189386,58.999349,208.073351,306.249595,38.587888,0.801345,0.960526,0.991862,0.871388,0.828111,0.953165,0.900589,463.563540,231608.392687,36.603977,954.653763,999.440963,88.534541
1788108737.484373,326064.618729,1.045161,0.000000,5.000000,24.609512,22.181919,-14.743477,33.900871,116.091595,73.021475,-32.922550,64.355314,233.738983,121.828857,-43.567600,93.837255,310.696262,190.775896,69.202691,71.372431,0.975329,0.885803,0.833790,0.949001,0.960196,0.807232,1.043227,520.442334,245081.429781,36.590361,1042.276394,1081.564063,90.873164
1788108737.488390,326064.622746,1.049178,0.000000,6.000000,24.197228,14.922681,-5.106425,61.440019,126.522269,-3.781517,-19.177665,175.145586,190.964909,23.764487,51.424561,375.545704,160.082702,-5.436034,169.703943,421.853746,0.819178,0.800913,0.855830,0.893644,0.969244,0.877062,1.044162,497.622356,255297.271778,36.601544,934.487714,913.947748,81.978629
1788108737.492360,326064.626716,1.053148,0.000000,7.000000,23.901472,8.813007,1.458623,90.175056,72.237781,-44.481914,74.841259,221.424058,37.570808,-34.334599,303.799659,180.875603,-111.912398,184.611126,285.420005,49.195124,0.900339,0.804889,0.971596,0.872728,0.872440,0.898096,1.093284,537.873801,255954.844941,36.602269,966.264033,954.004390,99.203923
1788108737.496393,326064.630749,1.057181,0.000000,8.000000,22.810047,1.908426,11.430212,101.763803,36.266136,-20.089142,129.545836,116.537602,-28.057410,160.535569,165.321392,-129.924309,123.074726,315.789398,101.108782,-2.143608,0.860603,0.976538,0.913330,0.900560,0.924352,0.909894,1.068509,476.928216,256049.109510,36.593588,1036.874156,989.827598,85.677576
1788108737.500359,326064.634715,1.061147,0.000000,9.000000,22.805491,-4.126353,23.997260,99.412135,-10.520283,39.395336,143.413532,26.502004,48.560319,180.630303,47.196025,85.891783,392.907640,79.495106,52.075372,473.632274,0.820192,0.895424,0.897901,0.873478,0.847482,0.908455,1.054521,484.448325,254183.910788,36.595946,978.936659,954.523084,88.435623
1788108737.504375,326064.638731,1.065163,0.000000,10.000000,21.545146,-4.243055,38.591802,84.706905,-16.794360,96.912931,121.863338,-62.103891,140.815153,120.860543,-46.525278,329.838675,116.747453,-96.224850,444.147235,96.764474,0.933792,0.852544,0.868305,0.981510,0.928415,0.879796,1.012554,487.025685,254897.685296,36.608641,912.609311,1021.672037,91.019595
1788108737.508366,326064.642722,1.069154,0.000000,11.000000,20.808766,-9.835849,51.659225,53.976669,-8.623680,141.178308,38.589660,27.055342,199.700021,24.600499,138.646455,159.937059,-30.988613,240.818900,124.530051,45.000047,0.888191,0.982927,0.896137,0.806772,0.813414,0.843513,1.028917,523.245778,261034.612944,36.590657,1098.033606,924.560766,97.176328
1788108737.512369,326064.646725,1.073157,0.000000,12.000000,19.435877,-5.776288,67.010028,21.800152,25.656705,150.476013,-19.245183,145.462277,103.841768,17.757987,267.672548,-21.747948,174.421180,224.045264,8.078639,341.178109,0.979831,0.970403,0.994412,0.810275,0.962207,0.892809,1.052136,465.747519,240623.298858,36.592066,943.038070,934.152981,92.621161
1788108737.516358,326064.650714,1.077146,0.000000,13.000000,18.127347,-5.345367,71.032612,0.802118,64.661055,90.418054,-23.583638,216.351287,-58.765170,188.284327,123.241855,-47.663993,201.616250,58.418055,337.165408,116.023932,0.811838,0.813081,0.986065,0.958305,0.931593,0.960186,0.957538,541.379874,266937.543490,36.604750,936.683680,953.930097,88.916556
1788108737.520361,326064.654717,1.081149,0.000000,14.000000,17.052905,-1.401239,67.145566,-21.651226,94.458203,22.281565,61.489871,143.057250,-6.281611,200.328302,-90.007919,314.349073,99.319996,125.836106,183.231352,-197.710688,0.838237,0.968197,0.911860,0.982684,0.830544,0.921310,1.034819,456.219459,247933.143473,36.594851,1080.912782,935.413053,93.050790
1788108737.524368,326064.658724,1.085156,0.000000,15.000000,15.364293,2.829365,62.614820,-24.846715,122.195719,-5.081688,117.751568,33.293373,108.226188,121.923422,8.388834,266.948197,-68.724456,343.626243,17.222237,812.573146,0.982255,0.908441,0.821742,0.890058,0.897879,0.955215,1.025737,456.420048,262340.919616,36.601424,972.295542,1079.363801,85.473667
1788108737.528368,326064.662724,1.089156,0.000000,16.000000,13.633123,7.832245,52.398399,-6.895260,114.371645,-35.667633,155.475239,-16.105174,168.266522,-61.222303,205.134393,50.800071,256.130261,160.072155,354.088543,346.066371,0.882249,0.869727,0.887918,0.885670,0.885141,0.809389,0.986625,504.633224,253584.776158,36.591763,1026.820136,1065.396951,86.202050
1788108737.532368,326064.666716,1.093156,0.000000,17.000000,11.786914,14.424324,39.940313,23.139176,81.898062,24.810133,113.410542,-2.787592,159.006320,-28.523223,251.620107,-15.859368,317.415684,-126.358724,544.260508,108.707580,0.891209,0.960454,0.884362,0.873944,0.857387,0.852254,0.991252,541.492787,275685.808183,36.597201,957.058165,1080.123646,94.855515
1788108737.536372,326064.670720,1.097160,0.000000,18.000000,10.000000,21.355888,25.586385,47.680424,36.819925,87.013529,46.706808,129.617708,40.118949,159.598441,58.457117,259.292541,65.732619,557.473779,-80.609361,414.122276,0.878365,0.836421,0.905244,0.987676,0.880894,0.990441,0.907664,496.069050,262671.937660,36.607934,958.081638,1028.111764,95.715661
1788108737.540382,326064.674730,1.101170,0.000000,19.000000,8.279562,27.918012,11.287484,71.490815,-1.438951,146.964827,3.517173,175.393403,-89.925152,246.909474,23.897584,480.375073,-7.698016,269.130548,9.532835,218.326455,0.963105,0.958840,0.922494,0.993933,0.830503,0.806612,1.050802,491.404491,250990.686096,36.591842,1028.149191,937.532595,88.108006
1788108737.544393,326064.678741,1.105181,0.000000,20.000000,6.560873,35.115000,-2.305218,93.371364,-8.116274,124.620669,-3.637890,170.599178,18.708697,113.359731,123.242434,72.108716,512.556969,25.297116,281.129132,-52.504743,0.941036,0.850380,0.857349,0.999121,0.947054,0.847403,1.015468,458.820083,233706.201046,36.604197,1012.451831,1020.677682,93.296389
1788108737.548386,326064.682734,1.109174,0.000000,21.000000,4.982020,40.192783,-10.677191,104.466929,-11.021251,108.134469,56.534596,63.080361,154.999632,-77.358494,549.150513,-118.498752,311.616045,102.116632,134.792418,186.328427,0.838229,0.873714,0.824931,0.823362,0.882196,0.808723,1.071958,486.971997,253466.102381,36.595219,952.349535,1054.980525,95.625013
1788108737.552386,326064.686734,1.113174,0.000000,22.000000,2.930743,46.180981,-17.362537,77.842042,15.768086,46.917332,138.864722,3.502415,192.747697,9.501300,321.309660,164.861790,41.187415,378.665899,-12.352794,217.291452,0.817477,0.869382,0.874531,0.957772,0.853003,0.905447,1.055741,535.281903,228397.645793,36.607513,918.988737,998.800547,91.517737
1788108737.556381,326064.690729,1.117169,0.000000,23.000000,1.964843,46.331756,-7.575679,61.155004,67.100580,-10.083833,165.669211,-41.044102,119.100714,155.529061,4.920788,354.555425,0.459736,133.878804,386.486565,-209.576869,0.898687,0.851764,0.821193,0.822831,0.868078,0.947087,0.908674,461.658464,233665.685990,36.607614,995.859550,964.381524,85.900422
1788108737.560382,326064.694730,1.121170,0.000000,24.000000,0.303538,50.265862,-0.807360,38.371914,109.506874,-16.446988,123.057905,87.095440,27.904337,437.407205,50.893778,80.955616,322.870537,13.478203,240.246291,191.987808,0.814385,0.980990,0.966775,0.967688,0.932939,0.969402,0.934550,482.076587,240642.119657,36.607490,1082.611601,920.892154,86.441127
1788108737.564391,326064.698739,1.125179,0.000000,25.000000,-0.901337,45.865567,13.525811,11.159324,127.270935,4.824221,54.768415,148.276559,15.557295,257.190814,166.795853,-147.328077,218.723193,222.517797,87.608743,333.625065,0.936173,0.834916,0.814029,0.922772,0.975189,0.993172,0.923421,503.553507,244813.759290,36.595810,942.814757,1061.337305,94.645800
1788108737.568397,326064.702745,1.129185,0.000000,26.000000,-1.843899,44.798784,28.914480,-4.322009,110.785193,59.892345,-37.882376,206.602519,169.863619,-99.636089,215.424946,126.182994,-115.528195,275.574848,169.348354,-103.648235,0.948919,0.856487,0.967988,0.802834,0.845444,0.929425,0.951760,517.107745,258894.328600,36.596544,1057.338451,1059.425841,87.809074
1788108737.572388,326064.706736,1.133176,0.000000,27.000000,-2.784108,40.803643,46.066625,-10.578925,75.626659,133.069376,-28.294179,82.159233,412.283054,-7.379590,37.513677,245.689033,12.083510,-65.277174,440.946785,158.857249,0.807656,0.851704,0.868919,0.947549,0.981242,0.969030,1.096729,474.440796,245443.099079,36.596669,1053.106928,979.427221,80.329486
1788108737.576380,326064.710728,1.137168,0.000000,28.000000,-3.808767,33.954553,61.428760,-7.230773,35.205791,145.692399,40.365847,6.051347,373.762057,156.275886,-123.329920,140.689862,305.933863,41.616606,-37.846847,370.521056,0.918328,0.875348,0.844058,0.843077,0.969715,0.997727,1.078732,524.363264,259982.579977,36.609542,1016.515772,954.361218,88.342215
1788108737.580390,326064.714738,1.141178,0.000000,29.000000,-4.312730,28.518055,69.407133,2.855114,6.110113,139.248709,138.608252,-35.995450,60.392949,175.704219,109.774763,-133.608095,179.429884,289.101217,-38.699557,-73.790671,0.920710,0.861002,0.959441,0.915655,0.911200,0.910172,1.072483,504.329359,240358.834538,36.590801,979.062208,1012.408353,94.515721
1788108737.584405,326064.718753,1.145193,0.000000,30.000000,-3.550709,22.019967,72.006481,33.170600,-34.931489,73.066594,148.551583,127.564261,14.289734,126.935502,247.882646,90.493238,49.590750,173.107995,382.789784,172.326134,0.809669,0.843482,0.858707,0.976837,0.832131,0.997764,0.965003,536.391825,232767.096509,36.596493,1072.742931,955.745133,96.056318
1788108737.588388,326064.722728,1.149176,0.000000,31.000000,-3.812330,15.147976,69.305484,61.295893,-25.655988,10.905316,150.488716,345.203316,40.304002,31.021536,162.511992,201.207839,95.230433,-60.570983,270.971647,863.982242,0.870468,0.874449,0.853876,0.913424,0.922958,0.837864,1.047516,506.896257,268244.872096,36.605292,962.063177,962.070434,86.961612
1788108737.592395,326064.726736,1.153183,0.000000,32.000000,-4.531034,8.267663,58.606722,89.571504,17.781761,-34.700899,64.333136,314.992322,173.571916,-38.005834,50.098610,172.096256,262.543255,172.726199,-122.360161,30.379689,0.871828,0.957834,0.860897,0.868783,0.858372,0.952397,0.959568,524.423154,267907.219932,36.596984,901.264954,1061.267215,80.528035
1788108737.596390,326064.730731,1.157178,0.000000,33.000000,-3.291968,2.506159,50.136088,85.103452,65.886725,-5.436137,7.364329,111.681478,184.148956,157.708226,13.675263,-25.240393,135.921066,634.764886,566.338464,102.764832,0.938487,0.830790,0.983420,0.937670,0.882533,0.957942,1.073671,495.562193,278056.973652,36.599133,1039.829282,1077.630482,89.549895
1788108737.600400,326064.734740,1.161188,0.000000,34.000000,-2.430482,-3.037562,36.847829,85.385663,102.982899,36.126641,-70.199264,-21.604112,116.234802,258.517887,240.406625,63.363013,-121.596868,74.748767,218.555002,264.695625,0.875691,0.883709,0.915408,0.975774,0.929591,0.872732,1.090319,517.573838,234076.339936,36.598816,1096.662148,1042.284591,92.639552
1788108737.604402,326064.738743,1.165190,0.000000,35.000000,-2.478603,-6.578381,20.998193,85.054408,118.713320,96.491873,47.450533,-65.213866,1.303704,134.776093,268.319632,255.313877,145.786534,-37.979391,-38.021779,132.207285,0.972116,0.839282,0.957607,0.934072,0.842272,0.916204,1.076206,546.465912,240620.435480,36.591938,1067.411499,925.928386,89.896575
1788108737.608375,326064.742716,1.169163,0.000000,36.000000,-1.282059,-7.257888,9.007556,50.879272,111.365090,131.290708,217.544300,36.956969,-66.117234,-64.641665,72.985396,235.205823,379.424524,296.549495,172.853414,-43.313592,0.932558,0.934631,0.814573,0.940897,0.890749,0.976061,1.069779,539.517024,241977.714299,36.609432,1027.949003,933.638014,83.819684
1788108737.611800,326064.746140,1.172588,0.000000,37.000000,0.048848,-6.124660,-0.675830,23.678954,79.451986,143.428420,153.905328,142.324869,79.574369,27.184724,-15.218158,8.120829,158.382443,294.176635,248.898133,370.823620,0.883119,0.842169,0.895962,0.827286,0.980843,0.987153,1.089567,512.598679,269388.409437,36.593097,955.827122,948.480893,94.899008
1788108737.616555,326064.750896,1.177343,0.000000,38.000000,1.742489,-8.455431,-12.931266,5.275473,33.322795,95.981539,166.943754,155.991788,160.480910,143.113452,97.675764,-35.002136,25.778575,-57.105382,24.307575,151.902462,0.990593,0.857290,0.800221,0.837992,0.964294,0.908707,0.990177,463.296901,273453.956225,36.609847,991.929829,1094.482809,89.861358
1788108737.620358,326064.754699,1.181146,0.000000,39.000000,3.027754,-2.106403,-11.524227,-7.169826,-14.586988,29.192212,78.904532,156.068331,160.004337,207.045786,322.061374,402.850571,384.416718,123.788833,-4.765076,-86.342137,0.889327,0.953323,0.995942,0.826117,0.977641,0.827618,0.944701,516.663715,247259.827607,36.600444,949.181575,947.815794,81.575892
1788108737.624405,326064.758745,1.185193,0.000000,40.000000,4.844840,2.029087,-1.175366,-5.530827,-3.264431,-11.769416,1.102136,35.357787,74.867246,137.153483,162.311353,562.491392,200.911016,313.729979,348.467920,295.488031,0.815293,0.884840,0.910621,0.976009,0.807927,0.879046,0.960627,546.663422,276428.296601,36.590574,971.460452,979.633465,90.429684
1788108737.628408,326064.762748,1.189196,0.000000,41.000000,6.399082,8.080202,7.820437,-5.668283,-3.859216,-37.545476,-27.437065,-11.738619,-36.316755,-4.629841,-0.895314,-26.741772,89.179365,55.665852,142.638860,184.418634,0.938282,0.926803,0.976454,0.954474,0.847439,0.898432,0.994883,492.677865,278494.838570,36.603226,949.413132,921.530388,87.544261
1788108737.632402,326064.766742,1.193190,0.000000,42.000000,8.157632,13.982622,19.386120,22.345549,14.661336,9.893393,8.573697,18.243589,7.800897,35.430887,29.679568,8.552170,36.010157,-153.802179,42.793966,-22.365305,0.874074,0.892013,0.854179,0.922189,0.901079,0.942415,0.958833,495.523474,233669.368308,36.602235,1070.194271,956.748494,89.527818
1788108737.636370,326064.770710,1.197158,0.000000,43.000000,10.000000,21.431473,33.894479,48.984165,66.389188,82.797313,93.004029,109.670957,130.065755,171.431897,428.035419,246.599237,266.611432,264.686315,334.124158,359.462338,0.907613,0.998306,0.802026,0.930443,0.968261,0.995064,1.012634,544.096187,256687.834636,36.603538,1052.639984,1097.245340,80.104045
1788108737.640410,326064.774750,1.201198,0.000000,44.000000,11.838020,27.799094,48.952149,74.183856,101.325446,150.326676,159.436674,201.503050,177.639340,181.052929,494.743251,254.789251,211.414812,211.392938,291.269850,480.101221,0.958411,0.878126,0.857014,0.824278,0.931810,0.811467,1.054591,533.657188,229730.117836,36.593836,1018.837283,1003.883470,83.405980
1788108737.644428,326064.778761,1.205216,0.000000,45.000000,13.519813,36.073029,63.591708,94.862550,109.736234,149.991375,157.714127,185.867944,167.326607,118.613385,182.489954,55.877452,-11.814865,-69.487979,-198.007161,-155.592627,0.927347,0.903942,0.962355,0.928585,0.976575,0.824159,0.950499,480.536480,273152.903439,36.593044,952.679831,973.802315,96.950962
1788108737.648403,326064.782736,1.209191,0.000000,46.000000,15.410172,41.460187,73.831405,98.381117,109.766276,102.276753,90.378493,49.861195,40.326054,-61.155091,37.899582,-23.020605,13.995654,74.395336,160.271783,448.854074,0.844587,0.855495,0.989850,0.965665,0.818862,0.992681,0.973207,494.036778,268957.183816,36.591744,1004.366810,1008.367096,97.806198
1788108737.652402,326064.786735,1.213190,0.000000,47.000000,16.869645,42.562481,77.425586,82.964408,76.745634,51.604392,17.104600,-33.905735,-66.443478,-27.107426,71.360875,175.664844,270.827358,275.932978,829.693696,332.913542,0.839473,0.850976,0.946236,0.880959,0.945375,0.873933,0.924969,478.520150,265511.820449,36.600705,1070.357550,1009.938669,87.507292
1788108737.656408,326064.790741,1.217196,0.000000,48.000000,18.073784,48.473248,68.194890,66.303361,35.601860,-0.189830,-44.641999,-16.608770,49.753445,177.165292,219.526267,221.248883,305.694807,135.913744,95.157847,-194.068221,0.822260,0.864300,0.923616,0.920508,0.969043,0.852089,1.033849,545.438914,241272.038892,36.595361,1085.489157,953.395248,97.298511
1788108737.660330,326064.794663,1.221118,0.000000,49.000000,19.309652,48.995694,64.113264,38.607180,6.562582,-2.454064,-1.650504,90.613766,184.086548,442.538568,204.996028,104.066407,-8.686017,-27.767499,24.341542,243.809995,0.849206,0.806453,0.917127,0.834452,0.909333,0.919419,1.055356,480.016770,242672.358258,36.603923,987.718544,1020.083918,82.770247
1788108737.664447,326064.798780,1.225235,0.000000,50.000000,21.307735,49.079361,46.207057,14.902949,-28.840066,-8.215763,87.278406,190.449219,234.995493,257.047475,-13.775242,-43.349011,94.535138,394.960161,214.419184,311.915840,0.985280,0.837925,0.955569,0.929464,0.870052,0.882025,0.900857,548.739801,246258.284865,36.609292,1080.202953,966.276582,81.482723
1788108737.668419,326064.802752,1.229207,0.000000,51.000000,21.612996,47.038285,30.945257,-7.163924,-20.833292,59.859431,155.353922,206.946785,86.516510,-45.343937,-20.496769,131.000715,296.355125,558.721436,129.469229,-139.958237,0.957002,0.917414,0.913898,0.833010,0.959289,0.923062,0.994729,536.323177,244858.774942,36.591420,932.029696,1092.218313,95.473775
1788108737.672444,326064.806777,1.233232,0.000000,52.000000,22.218088,40.455891,13.624842,-12.626229,21.203085,122.042074,181.037430,84.069791,-11.962579,1.919123,137.601028,249.810164,165.263068,25.473188,-58.582155,158.475671,0.895016,0.896925,0.951240,0.946163,0.915169,0.864010,0.908440,468.314562,262676.483527,36.602519,971.038813,1045.165439,85.923017
1788108737.676409,326064.810742,1.237197,0.000000,53.000000,23.857106,34.372547,1.647121,-7.598247,63.570031,155.091960,111.170284,-34.587577,25.445209,140.819887,319.842557,135.206602,42.307314,92.682617,255.754277,247.349764,0.825818,0.813149,0.976064,0.877220,0.987846,0.907977,0.918941,537.162235,267046.377825,36.591745,916.244440,1006.507471,81.573885
1788108737.680429,326064.814762,1.241217,0.000000,54.000000,23.555080,29.459633,-9.211985,5.348901,89.111834,142.429454,9.544521,-13.993126,225.526971,267.466876,110.237131,-34.470051,103.875912,376.034083,207.832535,118.112835,0.828536,0.964174,0.958070,0.928199,0.983327,0.842431,1.044822,479.292164,277949.481038,36.606392,1063.144993,915.672819,94.294441
1788108737.684426,326064.818759,1.245214,0.000000,55.000000,23.697240,21.950291,-9.781793,35.243418,105.063796,69.429550,-44.913830,64.918111,409.001149,131.397095,13.830445,102.127810,334.563949,167.828506,-180.703217,137.563645,0.843147,0.936380,0.935963,0.836346,0.999039,0.847366,1.034557,490.578831,249055.229964,36.605946,913.628702,1034.937713,90.971639
1788108737.688468,326064.822801,1.249256,0.000000,56.000000,23.496560,14.900215,-8.494455,62.822692,122.027229,-1.305060,-6.401597,178.297836,138.161645,3.686975,55.097856,328.261172,310.494976,-123.064447,166.643116,247.793430,0.973054,0.848857,0.906218,0.961746,0.860695,0.964947,0.927623,462.256639,242845.914843,36.606370,978.407726,948.421443,80.214672
1788108737.692433,326064.826766,1.253221,0.000000,57.000000,23.853656,7.190990,-4.556617,80.171086,76.076356,-32.391048,76.302556,181.334840,52.569596,48.195569,275.429015,151.015447,-145.641749,174.996505,335.618845,47.038320,0.836872,0.954594,0.903366,0.935385,0.839921,0.850087,1.031546,509.501941,255927.035586,36.603502,1084.910212,1081.774598,92.741094
1788108737.696421,326064.830746,1.257209,0.000000,58.000000,23.214220,3.720163,7.452282,95.662964,35.866678,-5.401487,131.870917,122.760262,-81.461190,173.996328,247.409269,-19.252482,262.252121,293.019611,-70.438502,70.253652,0.987838,0.908922,0.875424,0.867081,0.977580,0.835349,1.093024,473.734219,245952.845556,36.600859,1004.986603,1033.230488,80.997975
1788108737.700416,326064.834741,1.261204,0.000000,59.000000,22.336742,-2.236191,23.392738,86.686329,7.348798,37.521078,186.581209,2.247992,34.125896,199.796707,-12.111677,77.689603,300.046277,35.401732,111.764024,748.750182,0.918076,0.962371,0.825670,0.924419,0.874404,0.831224,1.040333,538.012951,243028.151865,36.590806,970.109577,1061.066817,98.648796
1788108737.704183,326064.838508,1.264971,0.000000,60.000000,22.456466,-4.702020,39.928627,81.927675,-18.915593,98.741960,121.916247,-13.011422,175.915272,121.176389,-73.701333,603.474219,123.023443,-106.670246,214.298242,166.097652,0.817823,0.960471,0.886675,0.855619,0.905759,0.914197,0.996814,457.656069,267092.488402,36.593532,1010.321301,992.959816,90.225829
1788108737.708523,326064.842848,1.269311,0.000000,61.000000,21.289398,-6.516082,55.524105,50.980782,-5.281895,129.863853,26.360079,77.033893,183.243151,-84.717977,127.287861,427.873111,-60.276450,241.762041,136.524557,-109.013005,0.867925,0.953322,0.803013,0.912906,0.972597,0.810746,1.018030,534.937062,264749.000652,36.602919,1060.265615,905.412331,80.703458
1788108737.712400,326064.846725,1.273188,0.000000,62.000000,20.114168,-9.437895,62.851141,24.573534,16.765441,143.659931,-4.271992,270.438279,102.458720,28.030198,234.364139,-14.021806,163.806610,231.593540,-21.972208,403.148747,0.801795,0.944546,0.840877,0.842946,0.995530,0.909980,0.936515,548.750635,275728.045472,36.606304,1032.457963,1082.171400,80.488930
1788108737.716428,326064.850753,1.277216,0.000000,63.000000,17.934709,-6.823196,75.056830,-4.976281,61.568995,83.878821,11.970021,388.270772,2.115841,174.005868,135.183705,-49.328974,388.562993,-31.848662,645.914956,136.850654,0.848132,0.971473,0.850371,0.820427,0.866486,0.960768,1.099848,492.173745,264919.236723,36.606027,1052.085426,954.651189,92.330439
1788108737.720426,326064.854751,1.281214,0.000000,64.000000,17.142680,-2.213540,71.806609,-13.100850,99.766571,31.852301,64.484007,145.233865,-22.638288,289.293504,33.860806,234.816650,43.781390,109.719822,450.952935,-173.007429,0.833146,0.943078,0.874066,0.991500,0.877934,0.911629,0.990917,527.656937,270555.683080,36.605970,927.333299,1008.580757,85.576224
1788108737.724422,326064.858747,1.285210,0.000000,65.000000,14.980613,3.083950,67.440532,-20.758262,116.971461,-23.390207,150.538812,35.301017,106.652236,130.616170,88.200330,229.725313,-33.502449,332.142899,-228.461926,401.597315,0.969404,0.921833,0.969775,0.896343,0.960747,0.877117,0.958290,526.660785,277653.790938,36.593412,1093.278223,974.993463,96.801089
1788108737.728425,326064.862750,1.289213,0.000000,66.000000,13.605045,6.856980,55.050770,-4.892606,113.554979,-11.902990,193.015251,-24.349788,213.026440,3.177294,480.805049,-33.822627,258.191539,50.381636,155.306177,166.452318,0.907586,0.920798,0.824021,0.882518,0.965164,0.867400,1.063374,497.515527,254811.419829,36.595444,1094.360887,926.120437,89.309734
1788108737.732424,326064.866749,1.293212,0.000000,67.000000,11.832997,14.169460,40.969202,24.304628,80.508589,6.927152,142.991529,-1.462019,198.931201,35.838974,485.914048,-23.589753,324.515835,-180.058233,476.691694,72.569174,0.962307,0.807914,0.850886,0.866766,0.923352,0.985846,0.996378,503.462542,267642.393195,36.608404,977.302481,1083.692033,87.900066
1788108737.736427,326064.870752,1.297215,0.000000,68.000000,10.000000,21.377900,25.407834,47.147895,36.317433,83.007024,40.549329,112.349125,31.094809,162.776093,72.186804,157.661995,-19.584817,527.831945,98.632296,195.184421,0.858642,0.820540,0.995890,0.997298,0.924918,0.909434,1.092047,490.805697,273863.533524,36.607964,1097.210502,996.397317,90.441716
1788108737.740434,326064.874759,1.301222,0.000000,69.000000,8.163262,28.951376,8.109644,73.052226,-8.484261,142.326415,-53.770670,218.673867,-5.245028,268.392221,-59.507070,235.795506,-10.544862,453.902887,89.206943,233.279425,0.945060,0.889584,0.941030,0.851028,0.896023,0.849241,1.029025,532.576856,264300.565379,36.595183,1060.077719,1086.107437,98.184887
1788108737.744435,326064.878760,1.305223,0.000000,70.000000,6.540775,34.687109,-1.771542,93.209661,-16.666738,118.628833,-43.668501,185.706455,52.096016,114.988202,129.156592,67.056754,297.119633,-24.707466,360.498112,-87.643112,0.814417,0.808135,0.913037,0.805952,0.921086,0.834091,0.911751,526.499313,274298.698144,36.600903,1001.530917,983.372821,80.687187
1788108737.747902,326064.882227,1.308690,0.000000,71.000000,4.845183,42.145665,-12.199583,95.341578,-22.360013,118.617111,91.519231,63.331188,196.110157,-45.429631,213.509420,-107.224410,232.523353,43.429330,139.886223,237.052700,0.823601,0.814077,0.931348,0.946568,0.961136,0.980958,1.051389,489.547879,258593.572652,36.595475,1083.236031,949.513181,80.823901
1788108737.752566,326064.886883,1.313354,0.000000,72.000000,2.975438,42.939493,-15.762390,80.656573,19.412263,49.113935,135.808961,-37.923016,211.276314,28.939944,170.573033,147.942808,-89.898620,469.645102,-40.542824,215.249854,0.929451,0.927177,0.915030,0.827097,0.987811,0.936354,0.989759,543.631848,245176.254893,36.595784,1003.703029,1031.152812,85.798885
1788108737.756397,326064.890714,1.317185,0.000000,73.000000,1.455601,47.678099,-11.393943,66.467187,66.827115,-21.100415,189.315009,-27.768191,122.292059,138.825910,11.929785,331.839155,11.434868,132.927367,319.145490,-155.489754,0.949005,0.991544,0.996368,0.961675,0.901335,0.924879,0.964635,481.459617,239015.916460,36.595152,1089.894542,907.899641,89.215254
1788108737.760446,326064.894763,1.321234,0.000000,74.000000,0.288758,47.343839,-3.173044,38.465081,102.383405,-46.067608,146.368710,95.317685,-15.873138,407.731602,-7.084119,91.265623,212.253647,-115.204255,281.894350,405.595652,0.821298,0.949913,0.975105,0.857750,0.837737,0.828074,0.958641,528.374317,230932.323711,36.594021,1055.214376,1019.092208,81.821631
1788108737.764438,326064.898755,1.325226,0.000000,75.000000,-1.261143,47.020610,14.835086,15.195237,118.717020,1.008504,51.293626,173.285692,-21.144202,261.090917,215.618864,-110.556224,432.002661,213.510654,38.865898,657.695199,0.985453,0.939999,0.886495,0.894032,0.929080,0.864663,0.922125,547.666697,232824.572593,36.604197,1024.077528,937.148564,98.795820
1788108737.768476,326064.902793,1.329264,0.000000,76.000000,-2.371002,42.759416,28.919654,-4.350462,106.217280,59.875768,-34.582264,184.383841,94.122398,-45.118552,217.707382,123.387956,-123.581342,416.312429,170.063660,-126.133815,0.974493,0.875317,0.898419,0.885741,0.942398,0.933297,0.991625,526.728722,248580.351423,36.593313,1082.516103,1013.129744,80.054168
